Channel 1 - P4,Channel 2 - O2,Channel 3 - P8,Channel 4 - T8,Channel 5 - C4,Channel 6 - Cz,Channel 7 - Fz,Channel 8 - F4,Channel 9 - Fp2,Channel 10 - F8,Channel 11 - Fp1,Channel 12 - F7,Channel 13 - F3,Channel 14 - C3,Channel 15 - T7,Channel 16 - P7,Channel 17 - P3,Channel 18 - O1,Channel 19 - Pz
-28.04736756,-34.70893115,-53.75475632,-54.60233537,-54.43853218,-42.87057054,-52.80378803,-54.43545767,-55.1238349,-51.03402731,-58.91299166,-52.06240387,-51.72242922,-46.68746195,-54.6881366,-50.15657677,-21.606996,-23.95422365,-46.04969096
-30.02622975,-36.67600613,-51.13575927,-55.76881426,-49.03810528,-36.4965058,-40.8013472,-45.42832357,-48.48945499,-45.53755873,-51.8752621,-45.19650033,-41.97905279,-42.01180027,-43.56326984,-42.13920737,-22.58099299,-29.01971046,-39.01462198
-21.41287694,-27.26601631,-32.71203064,-43.5843896,-28.88428608,-17.11441504,-17.0276367,-23.09905939,-25.3817597,-26.48327517,-29.36033971,-24.40469139,-19.18393283,-25.75079267,-21.44711194,-22.0403508,-13.90280095,-24.5018843,-19.55842274
-7.730498112,-11.56921428,-9.080826728,-28.84841288,-5.304506826,3.871898683,6.320926633,0.579303126,1.785420636,-4.505680517,-4.050573131,0.061105151,4.297295018,-6.822883745,0.663418132,0.473123728,0.18432066,-12.25899822,1.355857465
3.309324731,2.41595935,7.742888415,-17.46134478,9.862871331,15.65454152,18.73173584,14.31976577,19.31274883,9.318029952,11.57088197,16.58386945,17.19202333,5.400700443,13.25953028,15.62945854,12.42958287,1.441320005,13.38990455
7.068562074,8.915172404,11.93864754,-7.387591003,11.75673228,14.65007162,17.46732812,14.3521128,20.49731784,10.27223629,13.06806424,19.37368213,16.1902424,6.942206704,13.79776478,19.44280938,17.43318814,9.977349318,13.30190574
4.632141351,7.534203151,6.364492539,5.877650491,4.556247376,5.638321547,7.922297846,5.56103975,8.670932496,1.91192727,5.330453831,11.22943745,6.75814671,0.931440872,7.034049754,15.1183054,14.93875748,10.44899776,5.982676279
1.117855932,2.462623495,-1.217319171,21.72339639,-2.852623035,-2.866708359,-1.37751887,-3.303573042,-6.512204864,-7.723601828,-2.866603686,0.327518516,-2.081535415,-5.653905131,0.579499516,9.486341168,9.293540409,4.991047726,-0.190767514
1.265113479,-1.238672083,-4.580883518,32.70139422,-3.832055205,-5.09792822,-4.972366015,-6.260508781,-16.19992173,-12.23628098,-6.070026787,-6.069354813,-4.566402897,-7.402935855,-0.65296881,7.602701246,5.756987401,-1.352223068,0.21434247
5.845557218,-1.239711708,-3.00486512,30.66990576,1.770755692,-1.492167315,-3.328272803,-3.573300415,-17.56027707,-10.6918,-5.396910107,-6.152359992,-1.463637819,-3.921043901,2.875325532,9.626650877,6.624257115,-4.386192573,6.310303636
11.52580363,1.124848028,-0.200364117,15.02623635,8.8407061,2.977112744,-0.861861021,-0.005525802,-13.8695499,-6.803491825,-5.9039745,-3.382152353,2.087927587,0.920545765,6.912404542,11.89570019,10.03208614,-3.364640476,12.64838444
13.93946109,2.802575982,0.075581506,-5.038708283,11.9632897,3.602554294,-1.441857906,0.000621814,-10.42639359,-4.921006259,-11.10229162,-2.505830569,1.677967521,2.783852994,7.372085556,10.71472059,12.04182155,-0.772298215,14.13027298
11.26327741,1.844449332,-2.432109501,-16.99886009,9.778814325,-0.244181331,-5.246221663,-4.002442805,-10.1217211,-6.447047301,-19.59747937,-5.431416926,-2.760206131,0.401457237,3.361494992,5.505754444,10.04591771,0.123081798,9.938871561
5.443868861,-1.268924183,-4.688502482,-14.85098291,5.396720412,-5.123535055,-9.20571505,-8.688238291,-12.03373388,-9.379329205,-26.47296753,-10.1710374,-7.47283336,-3.837577685,-2.766840059,-1.076766772,4.719756211,-2.189317887,3.601384507
0.332255466,-4.593584173,-3.721766582,-3.711470384,3.103696543,-6.833051344,-10.07522121,-10.31646129,-13.43272906,-10.76053305,-27.71706147,-13.15684761,-8.520155358,-6.303955133,-7.790533159,-5.725160306,-0.847434819,-6.722605311,-0.359622534
-1.495449952,-6.767595871,0.18966847,5.005400929,4.568655769,-3.918306986,-7.184634389,-7.998906739,-12.78688513,-9.503220818,-23.54114582,-12.48335768,-5.095760732,-5.226199768,-10.13052412,-7.269240304,-3.851615072,-11.28251823,-0.117332716
-0.564963729,-8.179629975,3.429020919,3.63079134,7.771385294,1.48422134,-2.612946217,-4.110507684,-10.99087853,-7.143397815,-17.78353071,-9.249912925,0.185097839,-1.900181734,-10.54370638,-7.316203602,-3.955523912,-14.40653398,2.398158627
0.36164937,-10.31459585,2.083043344,-5.360441894,9.231327982,5.823908327,0.981711847,-1.826874307,-10.06341005,-6.18509791,-14.27157256,-6.18845164,3.854759132,0.720801594,-10.84877768,-8.434954439,-3.246582816,-16.27284005,3.595260105
-1.10929442,-14.05153738,-4.629226445,-12.20109509,7.253962915,7.156566242,2.655907515,-2.251381286,-10.94118581,-7.807115121,-13.63727102,-5.184147443,4.44848603,0.576028362,-12.13844922,-11.68877625,-4.218446745,-18.00356126,1.409684701
-4.940377594,-18.56777898,-13.53947011,-9.243165779,3.272691593,6.389164542,3.544097866,-3.716013245,-12.61548393,-11.01812503,-13.40680478,-6.01292859,3.164371624,-2.029356121,-14.05138281,-15.71447549,-7.601564511,-20.22441603,-3.116315596
-8.789549383,-21.84494152,-19.96707888,1.635742345,0.292820177,5.928471454,5.203414108,-3.687358258,-13.34374184,-13.80571107,-11.01460527,-7.202558187,2.092257653,-5.069405132,-15.46549948,-18.03744774,-11.82531734,-22.28210465,-6.954591718
-10.0537774,-22.27606652,-21.24653638,10.36602872,0.06979923,7.21987807,7.72461666,-1.333452267,-12.58570113,-14.98251048,-6.709054365,-7.858087288,1.991815607,-6.708599811,-15.67740265,-17.32620587,-14.40666243,-22.79794174,-7.693213517
-8.020740092,-19.92039987,-18.36857029,7.603128434,1.644826869,9.465702274,9.496006967,1.676375864,-11.63503636,-14.95604785,-3.532341921,-8.512176525,1.802028249,-6.685751367,-14.88951859,-14.5525538,-13.96710611,-20.98622988,-5.351681811
-4.380405543,-16.3486337,-14.53954294,-6.77626904,2.466214087,10.55635677,8.846721548,2.829874393,-12.2290552,-14.83927677,-4.381075737,-10.18895274,0.218597544,-6.080214758,-13.69426168,-12.08458891,-11.19169274,-17.50941045,-2.058929429
-1.816786457,-13.32351448,-12.16777548,-23.24035847,0.925339006,9.193052525,5.967916589,1.280264807,-14.44422792,-14.95142856,-8.940121316,-12.73483031,-2.38751851,-5.93197189,-12.27611358,-11.58381272,-8.067806292,-14.10288671,-0.143339449
-1.956760656,-11.54965562,-11.02342009,-30.62902688,-2.085835647,6.18286705,3.203124086,-1.173797757,-16.00029309,-14.29120229,-13.46834936,-14.26236932,-3.772702056,-6.154540219,-10.25641961,-12.58135168,-6.205448397,-12.30531192,-0.385043101
-4.330876232,-10.54143705,-9.089126414,-25.44876259,-4.004961495,3.749091504,3.277535984,-1.600253611,-13.8991784,-11.55502743,-13.83287518,-12.51685782,-1.732344449,-5.752316294,-7.357424187,-12.95369689,-5.698517223,-12.38082732,-1.784745142
-7.018056734,-9.547713819,-5.118817464,-14.15306735,-3.011023753,3.543998797,6.942693009,1.382750546,-7.166886297,-6.727736533,-9.18334415,-7.082353786,3.581245074,-4.03462376,-4.15376486,-10.84288478,-5.376450538,-13.29571255,-2.754014625
-8.245710582,-8.509028743,-0.408765807,-6.519495121,0.209992391,5.19045407,12.11784962,6.160154967,1.697215656,-1.662110207,-2.958470387,-0.378831827,9.173301386,-1.572356424,-2.022513107,-6.343498376,-4.052208132,-13.67185744,-2.486915973
-7.577145718,-8.085789671,1.938619879,-6.32912726,2.956434484,6.641435392,15.35995099,9.248004763,8.023371695,1.042980811,-0.18679503,3.685833728,11.2358054,0.081798987,-2.159608489,-1.526927144,-1.59610702,-12.83899728,-1.353125888
-5.857813754,-8.772641085,-0.330929673,-8.008189354,2.824228833,5.988931011,14.49035575,8.073870795,8.196872698,-0.010038235,-3.294739334,2.517109534,8.109093488,-0.302335637,-4.478018523,1.183124293,1.044985551,-11.11969506,-0.206984776
-4.211619157,-10.04391723,-6.399801005,-2.438953901,-0.211027349,3.090924506,10.205835,3.044507306,2.293343413,-3.916283941,-9.999943927,-3.153207076,1.667246875,-2.494771569,-7.424869262,0.898835877,2.76554561,-9.228018303,0.527347463
-3.080676912,-10.46693535,-12.60079133,13.31997743,-3.76328745,-0.388755292,5.36697397,-2.834223033,-5.996346138,-8.181138789,-15.13312829,-9.731716985,-4.106423149,-4.896227614,-9.003955448,-1.121997384,3.254079885,-7.438648602,1.100505651
-2.072466261,-8.785856862,-15.00126685,31.46795555,-5.047022781,-2.485384481,2.620014914,-6.400515187,-12.10466881,-10.64458835,-14.89367499,-13.38240645,-6.207352318,-5.816371054,-8.224078379,-2.565062451,3.153472966,-5.312706144,1.914385135
-0.556869169,-5.011586447,-12.2519267,38.71145078,-3.147710731,-2.598958725,2.369252432,-6.721697078,-13.81194608,-10.98391039,-9.982393189,-12.71969034,-4.806798933,-4.833849301,-5.777163115,-1.870029951,3.381872698,-2.191792228,2.908982246
1.665915324,-0.482972757,-6.40287481,27.21026501,0.392910142,-1.87042507,2.737505288,-5.441093792,-12.45321077,-10.57255533,-5.020496085,-9.482995435,-2.786803895,-3.062510277,-3.377008958,0.719726031,4.304392786,2.043512965,3.554145936
4.224322417,3.21637296,-1.119561803,1.786784995,3.084368087,-2.021920465,1.415837007,-4.946326353,-11.3133204,-10.9334039,-4.789876344,-6.807916149,-3.115254279,-2.118457922,-2.323190173,3.611261766,5.502627746,6.666004483,3.447579835
6.561970079,5.534431211,1.139036778,-23.05323049,3.662987809,-3.767864289,-2.264849845,-6.104982861,-12.6941276,-12.22572933,-10.4320272,-6.653683167,-6.347677136,-2.713546833,-2.504906015,5.283712179,6.281379072,10.51817814,2.853955628
8.362046645,7.255155122,0.686792516,-33.98890364,2.998451164,-6.213795617,-6.792130404,-7.602846759,-16.09698173,-13.10583675,-18.65942365,-8.499741335,-10.32730621,-4.094373502,-2.661649017,5.419053073,6.378287221,12.77127376,2.555144281
9.578348325,9.533444402,-0.177679463,-28.51971222,3.002764437,-7.711502703,-9.819296089,-7.411401765,-18.88732322,-12.03677066,-24.44263307,-10.20458672,-12.19588611,-4.7704566,-1.626125157,4.867077302,6.206188153,13.37714998,3.081049071
10.12480334,12.54027488,0.585882977,-15.3846749,4.617310345,-7.334727639,-10.15114873,-4.982176119,-18.69385457,-8.843120891,-24.81259595,-10.06165166,-10.86996988,-3.844834868,0.557527939,4.641271224,6.435899865,12.88901411,4.057479768
9.662084595,15.00262426,3.046598756,-5.872247,6.744263994,-5.646603396,-8.665203239,-2.123592467,-15.44109398,-5.127834959,-20.71001631,-8.194246655,-7.854081251,-1.772635363,2.609958733,4.942217092,7.342086565,11.9069145,4.369054596
7.819953586,15.15466315,5.456250686,-4.00493579,7.101182551,-4.135931661,-7.476424663,-1.698913678,-11.37951251,-3.192880195,-15.66118657,-6.18319245,-5.810154001,0.075371367,3.092650396,5.07963019,8.524712817,10.69355949,3.095012566
4.715721307,12.33753723,5.921880094,-4.290379266,4.244388887,-3.910815764,-8.171769527,-5.220121853,-9.244423525,-4.38561259,-12.73307927,-5.446377181,-6.253733265,0.603835006,1.647757763,4.294422863,9.24372723,9.266654541,0.419275056
1.2566667,7.84145571,4.036066435,1.294563727,-1.023967879,-4.851155117,-10.64296307,-11.39757049,-10.18435063,-8.212654206,-12.42776714,-5.924988938,-8.399706604,-0.12808078,-0.649464261,2.670927328,9.041512624,7.771930435,-2.332609899
-1.168540548,4.17780884,1.126270153,13.85893849,-6.095705151,-5.924995868,-13.40184226,-16.90041193,-13.12627056,-12.82660688,-13.04597774,-6.228131883,-10.04957577,-1.073572119,-2.098112614,1.275732095,8.094337051,6.671559805,-3.638579743
-1.48181515,3.305719497,-0.904439624,24.74973821,-8.465264092,-6.27606907,-14.93457834,-18.71791998,-15.89911845,-16.32591948,-12.76925301,-5.006469179,-9.589797682,-1.194954548,-1.636733711,1.37006121,7.015028357,6.494384054,-2.94286659
0.391018507,5.25093326,-1.008766111,22.41875008,-7.496607716,-6.014252097,-14.83555827,-16.20645142,-16.96875379,-17.7534901,-11.34843545,-2.246210424,-7.28574554,-0.368856966,0.473639003,3.36727972,6.333147629,7.364218123,-1.055898549
3.472943765,8.238809448,0.484911108,3.231238731,-4.628502955,-5.980956724,-13.81188827,-11.24580357,-16.29085941,-17.14265357,-9.934369505,0.676812979,-4.818711467,0.581104531,3.038744454,6.430058946,6.135684738,8.781879533,0.541538492
6.376663739,10.18705384,2.485758298,-23.4572888,-1.982718694,-6.762921315,-12.74780961,-6.552362526,-14.74369005,-14.90439452,-9.479814522,2.181262556,-3.642678969,0.691535633,4.964041477,9.053053317,6.150049687,9.924601213,0.881428097
8.137518178,10.27733791,4.113523055,-40.98007428,-0.667756545,-7.944119174,-11.82588049,-3.671622361,-12.91002147,-11.36057083,-9.467452648,1.813802614,-3.73470194,-0.260187708,6.015076224,10.14869944,6.114823695,10.23926999,0.16980682
8.628890375,9.318872485,5.115192889,-37.6018142,-0.207156408,-8.358341053,-10.52526333,-2.271322436,-10.4652136,-6.880462195,-8.301567158,0.577443333,-3.831935708,-1.583723267,6.714629003,9.75242401,6.035433797,9.809852348,-0.595565274
8.336276119,8.712142441,5.526586866,-15.37674552,0.573808043,-7.157151661,-8.402727116,-1.095838858,-6.736168132,-2.302161381,-5.018848761,0.039042433,-2.81514604,-2.320465334,7.586119171,8.807300217,6.080902295,9.167189136,-0.643498145
7.792730049,9.036940024,5.171110821,11.60787196,2.164695046,-4.721209711,-5.807460153,0.501022353,-1.830660189,1.060628517,-0.643305603,1.050489227,-0.865345707,-2.086951215,8.503646806,8.261203094,6.266047938,8.718111761,-0.135782989
7.191705679,9.559451478,3.675983963,28.00308032,3.803791072,-2.544160658,-3.779633751,1.901133477,2.822479464,2.113188483,2.228373896,3.163119903,0.694184206,-1.362222029,8.750698511,8.25612144,6.291619457,8.327876001,0.067570188
6.445707161,9.066222179,1.040415857,28.05813718,4.205286246,-2.121141078,-3.199605278,1.964386272,5.156152945,0.868652278,1.420755925,5.122374943,0.680086014,-1.00159991,7.707828304,8.072080638,5.759275756,7.45322871,-0.659979784
5.516555218,7.202850348,-1.892076928,18.00619991,2.84327386,-3.766270789,-3.991320291,0.359869103,3.902448574,-1.33434847,-2.912004446,5.896944388,-0.786243927,-1.453348041,5.516001404,6.834765158,4.591200015,5.707123723,-1.964154397
4.618537415,5.027259035,-3.709120625,8.902522374,0.571535746,-6.365920034,-5.144875982,-1.835130315,-0.369583816,-2.656246292,-8.135323897,5.353992321,-2.333779808,-2.382562716,3.097714889,4.364211581,3.244023372,3.315032241,-2.663218096
4.070378203,4.194747634,-3.40050877,6.80370602,-1.001327593,-8.274840202,-5.559079668,-2.872236674,-5.458368032,-2.057826223,-10.94264934,4.151099036,-2.556492745,-2.998799892,1.502854461,1.44384133,2.457263559,0.998202789,-1.709685494
3.949527399,5.439079032,-1.239952902,8.802777092,-0.820645817,-8.58896864,-4.941926773,-1.763787698,-8.818909071,-0.009769586,-9.675466252,3.148279418,-1.245727279,-2.745951693,1.142121697,-0.719293817,2.693486681,-0.657695193,0.859007533
3.913440379,7.689242104,1.239060668,7.664666422,0.782342427,-7.731109346,-3.957693739,0.865360188,-8.966150185,2.011606193,-5.306588767,2.949083578,0.500222033,-1.726753104,1.555111812,-1.409962341,3.730476857,-1.78768559,3.806174044
3.403289158,8.662616388,2.247176062,0.036558515,2.441340538,-6.904636233,-3.511403565,3.255580141,-6.045879069,2.822508094,-0.395678477,3.856221409,1.369398977,-0.526618879,1.880603282,-0.964264833,4.768653287,-3.213569263,5.534523781
2.085472158,6.531660822,0.942623898,-9.660565888,2.93344164,-6.94452423,-3.85515229,3.893039707,-1.375746088,2.495212246,2.996031296,6.00669186,1.094321298,0.335774116,1.593860696,-0.528371858,4.992829346,-5.737095909,5.198643335
0.154821425,1.346845378,-2.127643068,-13.21516614,2.128643155,-7.575601563,-4.351011189,2.604352869,3.469585495,2.143103378,4.678398292,9.31064413,0.697306849,0.799193303,0.876370041,-1.197725438,4.145504085,-9.314995581,3.210656334
-1.768360443,-4.909966947,-5.647066596,-6.64855874,0.915640626,-7.686090527,-4.101339974,0.483692347,7.291925516,2.732770777,5.96877358,13.17875277,1.498991096,1.168019564,0.339872957,-3.187507857,2.663346351,-12.82814263,0.795104925
-3.070100289,-9.652579235,-8.596837507,5.279741292,0.254965516,-6.328273071,-2.845140134,-1.172065533,9.352096683,4.011358825,8.084986205,16.44339612,3.817295563,1.700630038,0.403706265,-5.647651854,1.300419961,-14.70266335,-0.967507734
-3.553570377,-11.32798789,-10.82225284,12.44568586,0.269279697,-3.559891498,-1.271388608,-1.905183663,9.201231367,4.553129272,10.77365544,17.83466204,6.568332934,2.329117532,0.912105888,-7.242385433,0.582154996,-13.94497581,-1.809072574
-3.510416297,-10.13651584,-12.67131537,7.851670987,0.190727348,-0.431160566,-0.441891206,-2.20910903,6.692605342,2.938905104,12.33656159,16.82874962,8.146485353,2.79014363,1.338258246,-7.054199479,0.540772139,-10.80280971,-2.182550477
-3.42443211,-7.44205243,-14.16218438,-6.156488289,-0.828649394,1.813088891,-0.842938978,-2.71355454,2.246913162,-0.936502816,10.97518145,14.17660524,7.788189248,3.004947095,1.3806429,-5.160401824,0.899435504,-6.557651317,-2.617533617
-3.568032645,-4.545439817,-14.56472322,-19.40591351,-2.815008846,2.601636453,-1.934295348,-3.301956969,-2.975647422,-5.570744606,6.307402264,11.52558577,6.191677496,3.277728547,1.392369813,-2.501067823,1.466397445,-2.643244365,-3.15463285
-3.805129775,-1.891258635,-12.87264523,-21.92197753,-4.80403415,2.275015157,-2.616250871,-3.05245623,-7.365376677,-8.847492573,-0.137830147,10.28196708,4.856197418,4.053111861,2.209866918,-0.184530017,2.335589895,0.206427595,-3.333859575
-3.719838277,0.755147422,-8.786475251,-11.73041032,-5.5497609,1.596129341,-2.202307134,-1.098417195,-9.57483694,-9.488745143,-5.75676022,10.59117896,4.767342484,5.422216647,4.455609233,1.235995199,3.701733064,2.157776767,-2.674226876
-2.939289582,3.538068249,-3.314415342,3.90864884,-4.481979587,1.055316861,-1.026464528,2.375333989,-9.179087376,-7.775534484,-8.348323819,11.31753347,5.620099522,6.857141728,7.85504016,2.002706396,5.480826628,3.778976475,-1.167331218
-1.412386199,5.996747839,1.606907938,14.46298034,-2.102640255,0.591274228,-0.143023892,5.949227746,-6.791760802,-5.025015039,-7.211440089,11.09155901,6.238993343,7.49148162,11.14616047,2.786068258,7.128212199,5.356780783,0.644373874
0.512472348,7.312845209,4.239175373,14.00673167,0.456984976,-0.104432836,-0.388885135,7.853977866,-3.574773074,-2.400017526,-3.288700997,9.545192029,5.743287971,6.779448785,12.73555081,4.03541891,7.883617377,6.628891691,2.026782692
2.214740789,7.054014476,4.059442024,4.658360008,2.270114327,-1.08086623,-1.638073693,7.248933453,-0.560998279,-0.145938073,1.503996774,7.64602797,4.351030949,4.996939964,11.6939072,5.554806375,7.290869819,7.105366877,2.509005822
3.04683028,5.672669037,1.923869844,-6.471443019,3.120602615,-1.944589179,-2.890777458,4.866555966,1.702783642,2.139734407,5.22703547,6.815819923,3.106271573,3.139867006,8.410835514,6.610955755,5.577178637,6.616664073,2.079198613
2.60571099,4.254661484,-0.653249881,-13.31299423,3.34416871,-2.170790037,-3.091038166,2.512405254,3.052130617,4.610904586,6.684894973,7.615529206,2.853032585,2.262377524,4.441491168,6.466868838,3.56426435,5.551305717,1.055039075
0.954078513,3.707253741,-2.471698559,-14.42900899,3.297900097,-1.593610341,-1.941454095,1.831334206,3.444752799,6.636487783,5.815533887,9.199489165,3.475842418,2.760191707,1.619423962,4.924831678,2.148731233,4.561621811,-0.161657238
-1.303285796,4.081055174,-3.16430128,-11.7658387,3.036729183,-0.601537768,-0.030435133,3.293083941,2.92971717,7.228614461,3.651828134,10.06344759,4.130359172,4.144520123,1.000243718,2.479532883,1.726758365,4.015038812,-1.223475469
-3.187309975,4.593780954,-3.054789112,-6.925441402,2.485654732,0.144160875,1.766074169,6.097234561,1.881235914,6.06434181,1.828662394,9.418910743,4.198984688,5.44540379,2.310368024,-0.006270965,1.975847662,3.698297658,-1.851314868
-3.765559781,4.307920638,-2.694640382,0.700539049,1.852194758,0.206890011,3.01069259,8.924972852,1.128662716,4.090394569,1.722974944,7.912731947,3.984865678,5.889250329,4.241013182,-1.836185775,2.127540996,3.047373303,-1.869798977
-2.653811956,2.874095314,-2.535153194,12.01809628,1.76606927,-0.348104197,3.908213312,10.8520161,1.613242468,3.019927285,3.599364406,6.980570444,4.408391449,5.328449344,5.376430007,-2.830088528,1.505869582,1.699411696,-1.347162912
-0.291040067,0.746232356,-2.868099645,24.85030778,2.904795579,-1.098516256,4.880860274,11.75339356,3.668298853,4.040229315,6.34274137,7.398522186,5.966216175,4.168583123,5.135659973,-3.275840428,-0.0546395,-0.125925917,-0.71514648
2.246098575,-1.236754095,-3.824111682,33.21113929,5.391408935,-1.639011107,6.0128829,12.06407239,6.522143967,6.825994163,8.140452216,8.410105834,7.996134066,2.969139944,4.102426952,-3.593340745,-2.164106048,-1.757554189,-0.650854893
3.832140351,-2.487535612,-5.23224452,30.94132605,8.519320969,-1.819087877,6.952137729,12.28148649,8.620913707,9.758250198,7.81117352,8.353830546,9.075860328,2.103751108,3.525843687,-4.020030601,-4.16966212,-2.607859288,-1.673953825
3.919839025,-2.998461081,-6.463803529,17.0439186,11.10571243,-1.671991933,7.362992702,12.67344819,8.744852422,11.22154125,5.847149354,6.338577034,8.319016447,1.709379599,4.3382108,-4.549982777,-5.538494445,-2.650593646,-3.713359606
2.77934508,-3.170003079,-6.59342794,-2.085399601,12.22973308,-1.200882775,7.439406855,13.31620633,7.130324618,10.8963409,4.259718954,3.44344859,6.398974722,1.829517972,6.383792338,-5.09608264,-6.084903493,-2.430249074,-6.020875741
1.197497553,-3.380665917,-4.993405403,-16.0857741,11.77613555,-0.32223008,7.889565357,14.23183428,5.61239592,9.943531531,5.149157802,2.190734208,5.246954423,2.493707763,8.432070173,-5.642849024,-5.955438455,-2.592496973,-7.583835774
-0.105425054,-3.688294419,-1.987370552,-17.50366286,10.37953324,0.936942033,9.307109016,15.37055415,6.454945981,9.931358966,8.981242494,4.517564883,6.51124757,3.613612659,9.010450002,-6.200082441,-5.454282122,-3.330265307,-7.775008185
-0.87813118,-3.849325696,1.060333834,-6.84048433,8.877789772,2.214295065,11.47773801,16.46137388,10.59104428,11.44847358,13.94210037,9.892006632,10.03596194,4.842458434,7.486978432,-6.609774552,-4.852440121,-4.208593162,-6.745020972
-1.277542664,-3.542165485,2.49713871,8.118839463,7.764495932,2.880104641,13.31516412,16.99077903,16.59523115,13.61206153,17.01827921,15.27903918,13.73118701,5.642123479,4.602130011,-6.462131411,-4.279418508,-4.516222017,-5.246780429
-1.480009704,-2.572747052,1.525276783,17.98856985,7.053655595,2.456132184,13.59833561,16.48169583,21.29113378,14.88159604,16.09816793,17.19819426,15.08112478,5.610545951,2.000715337,-5.324196062,-3.720125613,-3.863809907,-4.046791352
-1.38491969,-0.965582237,-1.172849375,17.92935741,6.545133555,1.06289962,11.94272178,14.90800906,21.71075692,14.43530064,11.50396253,14.32094033,13.11188126,4.824322963,1.041778426,-3.190213919,-3.092296469,-2.556743093,-3.418958805
-0.722125338,1.003028629,-3.922517861,9.807913258,6.129011076,-0.542008035,9.164626593,12.8524719,17.0694651,12.88101042,5.728971784,8.490045086,9.174261071,3.857862555,1.744118452,-0.782113723,-2.361114296,-1.453972722,-3.122390779
0.536235546,2.785794595,-5.347185501,-0.445484237,5.811910432,-1.463794045,6.675594412,11.17397823,9.34659507,11.68157624,1.547370368,3.264228404,5.845596217,3.381158754,2.692463944,0.655719768,-1.632190028,-1.417043356,-2.815882316
1.892201661,3.65244771,-5.41741547,-7.314865944,5.508302344,-1.35275241,5.381396826,10.39044294,2.055751079,11.82897402,-0.02826348,1.124862348,4.837858969,3.619409564,2.051467383,0.063656993,-1.154367623,-2.742276843,-2.467671519
2.527167251,3.01294632,-5.345814575,-8.321008025,4.926768646,-0.696364011,5.017430483,10.29642488,-1.90279793,12.97059019,-0.329842376,1.61494456,5.65680216,4.127617158,-1.01359914,-2.666516719,-1.194905356,-4.952181165,-2.346439855
1.913857482,0.901409971,-6.373995693,-3.604467794,3.789864134,-0.432607711,4.503335714,10.19039088,-1.794007078,13.7822689,-1.718159745,1.929005889,6.134539282,4.109344682,-5.574846234,-6.44945517,-1.835491702,-7.049717573,-2.607043605
0.331455084,-1.736819494,-8.482990101,5.727044368,2.240576102,-1.166393707,3.025845323,9.568497429,0.990540796,13.26372424,-5.459506191,-0.555785721,4.377081142,3.060561557,-9.460256994,-9.550078923,-2.826829796,-8.038786444,-2.910683529
-1.215126977,-3.344024737,-10.18679808,18.09715985,1.005516837,-2.634125122,0.916302726,8.700031687,4.339017423,11.79944452,-10.51724546,-5.920856253,0.480638421,1.231222133,-10.71984097,-10.60114769,-3.643095432,-7.392441611,-2.529010215
-1.697279192,-2.643292841,-9.672626943,30.49949849,1.025600927,-3.880253305,-0.454296247,8.550385739,7.014076552,11.01944795,-14.21027134,-11.46661767,-3.414715886,-0.472634084,-8.966413099,-9.402892848,-3.756152908,-5.245299079,-0.939372619
-0.857990011,0.412530873,-6.374524543,38.07180182,2.743869539,-4.017802089,0.29033253,10.05139582,9.263343124,12.53723487,-14.17646795,-13.75966253,-4.752227479,-1.077286384,-5.587641739,-6.946772376,-2.974558338,-2.280368867,1.580519462
0.564810585,4.390980645,-1.640010328,36.09710897,5.620637832,-2.945656031,3.411318439,13.28667491,12.15487846,16.6170785,-10.07563065,-11.25909339,-2.498015532,-0.166372148,-2.680746016,-4.669606902,-1.606953397,0.573962404,3.930868316
1.413578101,7.172131017,2.123091673,23.71570089,8.341632142,-1.425752902,7.763108208,17.26145578,16.34595147,21.8804915,-3.760333957,-5.409020632,2.166238286,1.914285699,-1.544832829,-3.504419211,-0.306591139,2.485271193,4.863077364
1.04253397,7.32513931,3.154599274,6.134400758,9.636668886,-0.464754278,11.54704974,20.46063316,21.32930309,26.26827475,2.078626306,0.566989293,6.843667756,4.36509594,-1.897601139,-3.41142939,0.319464748,2.982659488,3.863192202
-0.165293174,5.069340097,1.515830606,-7.474500638,9.096765686,-0.532062104,13.4697937,21.76054228,25.68834265,28.42488895,5.623787098,4.035104488,9.655856743,6.444660569,-2.389087899,-3.664303803,0.069623228,2.080280782,1.537444007
-1.14692955,2.051080963,-1.19541621,-9.761340331,7.345318038,-1.271430871,13.38508222,20.99651399,28.03509912,28.37548127,6.712130304,4.517387958,10.26183543,7.775248218,-1.936073072,-3.574710123,-0.777084714,0.228820092,-0.82716359
-1.104757589,0.064579646,-3.266277664,-0.516319086,5.440120483,-1.921840075,12.00474344,18.81468552,27.82591301,27.04823888,6.313581729,3.352764151,9.493816665,8.287634925,-0.744172083,-3.042268625,-1.711922374,-1.891570012,-2.180540342
-0.259612271,-0.296609926,-4.166242223,12.89828807,4.020514708,-2.04461193,10.08224819,16.04952887,25.48499047,25.21919157,5.418307064,2.057673904,8.210700883,7.997816801,-0.156922519,-2.53476976,-2.373025405,-3.662195068,-2.371899443
0.242288791,0.015059205,-4.64426064,20.76197293,2.914081954,-1.899560149,7.87102523,13.22293529,21.92416813,22.90882564,4.374608615,1.010607968,6.568481717,6.918929742,-1.452657644,-2.617324197,-2.767346333,-4.777208344,-2.059441709
-0.770816406,-0.572354024,-5.666260595,17.98470286,1.501936413,-2.14093063,5.310703494,10.55941646,18.01451617,19.76167226,3.111246546,-0.421470824,4.343064949,5.203070863,-4.597083051,-3.505817246,-3.199316161,-5.342114554,-2.019789908
-3.507288456,-2.834158501,-7.267715131,7.4098083,-0.526634658,-3.119245658,2.648910571,8.366958904,14.45705069,15.9698319,1.779267495,-2.666557865,1.81296185,3.307706518,-8.021029733,-5.027883212,-4.005102522,-5.784206195,-2.501228202
-6.944261493,-6.038721859,-8.421147503,-3.061986934,-2.733619707,-4.433164439,0.764628037,7.263871247,11.97926828,12.75085003,1.001172478,-5.025408479,0.11762702,1.904093336,-9.671765102,-6.949673824,-5.324651149,-6.637648345,-3.17214292
-9.515215603,-8.545463429,-8.033455114,-6.945737132,-4.216893506,-5.161050203,0.733046432,7.887773444,11.38694378,11.76488982,1.391626301,-6.079928398,0.523552566,1.485137423,-8.548217022,-9.27565129,-7.071825148,-8.315780218,-3.63847471
-10.21902299,-9.201406721,-6.110401381,-3.816514928,-4.373887623,-4.603666115,2.913761412,10.26197418,13.13440065,13.83031403,2.809817947,-5.101521977,3.165808973,1.964760673,-5.518431915,-12.1759279,-9.067271066,-10.95868534,-3.974120777
-9.288563296,-8.339764333,-3.95200131,1.500192719,-3.459863078,-2.910608134,6.371821463,13.41132028,16.64120895,18.00709854,4.142622556,-3.05810272,6.492204583,2.655124169,-2.763669029,-15.58966143,-11.16302971,-14.3816521,-4.709831117
-7.92724287,-7.51713529,-3.135309374,4.011648542,-2.425331173,-1.043311661,9.252066554,15.70438537,20.04431205,21.92172066,3.975110833,-2.08731027,8.140224931,2.733899556,-2.255460737,-18.91508179,-13.23010102,-18.10879816,-6.255621627
-7.367535265,-8.201505717,-4.177387796,3.158145916,-2.145072428,-0.078121917,9.952874096,15.8152118,20.93197354,23.24109391,1.689492489,-3.709725443,6.710314348,1.886663133,-4.403542776,-21.17002825,-15.04757768,-21.47733524,-8.299888151
-8.009570808,-10.52084883,-6.095513912,2.891790712,-2.686933254,-0.403066927,8.243523657,13.63843308,17.86165667,21.2603131,-1.906056578,-7.316893891,2.995983835,0.609104459,-7.851981685,-21.59054119,-16.2553779,-23.80863415,-9.803162754
-9.270327414,-13.12987578,-7.279159992,7.421190583,-3.245344877,-1.448576139,5.451864541,10.45011273,11.68005408,17.42534266,-4.978372236,-10.38322463,-0.445851123,-0.115947696,-10.5078522,-20.19841707,-16.48660613,-24.61905685,-9.696579763
-10.16349609,-14.2968724,-6.885662724,16.68804575,-2.80575475,-2.15300567,3.550475925,8.144749392,5.53537729,14.38439277,-5.836331487,-10.40974189,-1.159588819,0.442692019,-10.98372469,-17.82474417,-15.61732589,-23.79094624,-7.747854155
-10.06782614,-13.2793832,-5.480170369,25.7468295,-0.996162319,-1.776333535,3.817829045,8.068946238,3.24420783,14.23517643,-4.000165347,-7.046492401,1.362272373,2.170818954,-9.407145485,-15.50247534,-13.92851984,-21.60105913,-4.855406973
-9.075399975,-10.83456058,-4.3331212,28.59307545,1.563008779,-0.424056175,6.056762339,10.26086661,6.875712926,17.18587747,-0.420941623,-2.562481797,5.342061066,4.128662422,-7.111732866,-13.68893009,-12.01073268,-18.56383506,-2.475625133
-7.739267932,-8.476828974,-4.046846064,23.0006764,3.674347978,1.088953459,8.887356588,13.5759492,15.15413998,21.49969458,3.216445325,-0.152559094,8.16102292,5.182374943,-5.5762542,-11.96691398,-10.44063479,-15.17038112,-1.609473501
-6.550640128,-7.173640885,-3.844493448,12.15977282,4.391216876,1.869686368,10.79967747,16.51947575,23.91399134,24.6686981,5.514428023,-1.400541993,8.394499938,4.776124505,-5.452611389,-9.509438586,-9.453709446,-11.69503441,-2.151072802
-5.632337543,-6.622332623,-2.276518202,1.91101327,3.613160598,1.554086012,11.12892934,18.14262582,28.51214881,24.96864454,5.996716623,-4.98510084,6.781144825,3.280093762,-6.320968401,-5.959779148,-8.856382544,-8.207146778,-3.103601476
-4.850790485,-5.700865977,1.22798202,-3.716066625,2.047341527,0.458247341,10.28021606,18.41631815,26.70189027,22.40478268,5.069640328,-7.729007838,5.386362484,1.692022181,-7.185389641,-2.004313346,-8.240081503,-4.770399768,-3.449953239
-4.129877199,-3.636513105,5.407294294,-4.70506855,0.661412797,-0.751555494,9.180704016,17.96019541,20.03688467,18.56151256,3.555782456,-7.159228241,5.733401076,0.957523893,-7.212354927,0.872676481,-7.326388494,-1.652044134,-2.940419059
-3.590949252,-0.818585968,7.82487842,-3.451265209,0.104641616,-1.535393206,8.507659852,17.46054981,12.79587054,15.58079231,2.236033465,-3.490104214,7.502535965,1.420126301,-6.173305861,1.323325535,-6.178788126,0.660871877,-2.1670298
-3.367160566,1.473117283,6.745412588,-1.470321978,0.491266463,-1.733306395,8.29856012,17.22516804,9.115715457,14.94252446,1.627223437,0.578058325,8.862765177,2.751030784,-4.406961141,-0.920761155,-5.134844259,1.694112158,-1.923889953
-3.305248565,2.16860639,2.678950844,2.052196405,1.564342443,-1.487920879,8.131325421,17.09395792,10.29656818,16.71425195,1.920383034,2.046986186,8.092535907,4.311897016,-2.500844527,-4.795942052,-4.537528014,1.313286908,-2.451947484
-2.911633065,1.341615727,-1.797758243,8.438231153,2.960923445,-1.014914329,7.585081401,16.62285975,14.14894814,19.6004274,2.930763101,-0.015727157,5.078890413,5.607021619,-0.999459173,-8.523101529,-4.488462824,-0.108409585,-3.227342033
-1.680226624,0.139051929,-3.92751475,16.49702152,4.324901536,-0.465619638,6.552134412,15.34190849,16.8086462,21.70038705,4.080624628,-3.835736366,1.442637056,6.495621473,-0.27627352,-10.63699242,-4.800913976,-1.832003156,-3.447145789
0.437985493,-0.229590613,-2.880227987,21.83551953,5.273632399,0.041970874,5.216305238,12.97579285,15.67147516,21.5653418,4.582224975,-6.446183848,-0.761253014,7.093598551,-0.495732044,-10.71680873,-5.152341504,-3.122928873,-2.753928002
2.841985473,0.459835164,-0.34292669,19.90847797,5.417402339,0.347990809,3.849712786,9.625359842,11.29518401,19.01434524,3.878259944,-6.03051472,-0.62882482,7.546220217,-1.554180273,-9.392569024,-5.285020205,-3.594379834,-1.552469078
4.584480128,1.294044525,0.92324168,10.44478485,4.554392921,0.286467008,2.688123704,5.888115696,6.892341864,15.26619517,2.102450855,-3.174824218,1.039934313,7.898407691,-3.01855019,-7.754209932,-5.098269729,-3.293834221,-0.651073944
4.980856947,1.101695241,-0.610857757,-0.929786026,2.910638362,-0.163686062,1.968850234,2.79294203,5.836647422,12.27012968,0.163108941,-0.114642019,2.604719577,8.136704168,-4.193779847,-6.658879606,-4.599437946,-2.5058285,-0.55465617
4.064123297,-0.414206828,-3.96510411,-5.995106752,1.149846421,-0.769322982,1.982583726,1.426692176,9.08583355,11.56912287,-0.738999262,1.250491736,3.04584692,8.300856453,-4.392516876,-6.373495178,-3.807788695,-1.457704729,-1.026388299
2.53624882,-2.293443926,-6.440150813,-0.004236737,0.026576105,-1.128114973,2.960920165,2.337173111,14.46719097,13.36222207,0.108656049,0.858124924,2.756538905,8.523034402,-3.294713505,-6.637259008,-2.724073898,-0.167701144,-1.285472701
1.261147677,-3.032532197,-5.806993495,14.33557465,-0.11352255,-0.926433558,4.824672572,5.06731679,18.33904076,16.38281964,2.422713558,0.314591011,3.044200779,8.955471016,-1.157810714,-6.925998179,-1.387726644,1.466691617,-0.659344831
0.693988842,-1.792047588,-2.102316546,28.39010482,0.415252766,-0.172076941,7.033609574,8.228304635,18.32635247,18.72137688,5.104916957,1.339506048,4.847513388,9.66697793,1.28947322,-6.676516301,0.057677405,3.449754425,0.860093023
0.665138338,0.920701134,2.392225381,33.60552441,0.885936765,0.799005629,8.762213762,10.21096341,15.02631361,19.07338253,7.001014142,4.227962637,7.811260485,10.60679898,3.214796236,-5.419038658,1.382601559,5.546484856,2.597306894
0.635775026,3.644115446,4.896115611,27.31199,0.750474133,1.55917949,9.360260652,10.14511826,11.40601502,17.55596516,7.665024685,7.608055251,10.49642229,11.65117919,4.076125286,-2.917695254,2.381556244,7.345387564,3.690647177
0.178733169,5.060289413,4.147531708,13.92254557,0.110433667,1.879500892,8.777106096,8.444183402,10.41804684,15.50973951,7.556555214,9.594990777,11.50603442,12.6652502,3.816483718,0.634118778,2.987806006,8.470784859,3.682682407
-0.699174083,4.864773944,1.127783489,1.033592993,-0.331556254,1.842583455,7.604925012,6.496878122,12.72574584,14.43313415,7.561210175,9.278328019,10.55298093,13.51705522,2.802820329,4.494523567,3.291189194,8.771442054,2.757668136
-1.60930321,3.735063188,-1.925182265,-5.991361223,0.171207327,1.705539021,6.676009596,5.675602304,16.29364619,14.84605618,8.250497085,7.294720536,8.598741917,14.05561278,1.614218386,7.532961629,3.437671749,8.348442272,1.51267451
-2.119519228,2.541989156,-3.259641896,-6.607011749,1.771064021,1.655075086,6.503348602,6.363730901,18.08994397,15.93396601,9.451035092,5.106417793,7.008186837,14.11803299,0.810418381,8.706856511,3.490400323,7.430022725,0.517310838
-2.097952945,1.579816913,-2.691622983,-3.458727173,3.807906731,1.67500689,6.978287119,7.721226778,16.48328243,16.22096661,10.38285433,3.710973603,6.467837581,13.59812911,0.730236723,7.610763121,3.364307389,6.219744329,0.017430624
-1.821086822,0.493304149,-1.333710645,1.036246906,5.185777975,1.625588019,7.52716415,8.362769645,12.42037714,14.72783367,10.16548549,2.906598225,6.54475516,12.5267367,1.317452045,4.722723276,2.885076564,4.8384246,-0.062175014
-1.800720447,-1.117842708,-0.459160362,6.309786296,5.062058294,1.433022488,7.563766919,7.425905828,8.511409728,11.71495156,8.281861888,1.662647558,6.171528553,11.07871333,2.027511895,1.149229046,1.925626975,3.370819668,0.066038633
-2.465527008,-3.073827811,-0.586690989,12.21445942,3.349637326,1.192190324,6.86418766,5.207280942,6.852207215,8.464760687,4.755906024,-0.830374921,4.577902674,9.483419761,1.951407525,-1.967373782,0.520954106,1.926852174,0.203618895
-3.888775937,-4.620572025,-1.465071895,16.69112581,0.706720019,1.077738606,5.597675829,2.88427372,7.386513908,6.320258015,0.101812933,-4.377674448,1.888011004,7.916941508,0.244634148,-3.971309917,-1.110924947,0.628500719,0.195001898
-5.696371256,-5.092297403,-2.718664352,15.75152271,-1.916684337,1.146064065,4.056689172,1.551692177,8.093863527,5.744547385,-4.783095291,-7.888860778,-1.043201537,6.48430801,-3.277397733,-4.823211201,-2.643082533,-0.47149422,-0.084580396
-7.19466172,-4.602461389,-4.36488963,6.64578467,-3.817785843,1.218283977,2.366108562,1.329332343,6.752008902,6.083606235,-8.755786085,-10.19993208,-3.3307118,5.311806204,-7.756320859,-4.84893227,-3.756490929,-1.442869628,-0.672966244
-7.6742403,-4.06666169,-6.67933663,-8.441530526,-4.822555965,0.966313234,0.427020644,1.232061628,2.761257976,6.118647335,-10.73375363,-10.8699905,-4.683506498,4.641122587,-11.4963571,-4.401190904,-4.242028613,-2.414877271,-1.417116525
-6.773464609,-4.454731493,-9.619716856,-22.03405072,-5.213625242,0.146869402,-1.883928435,-0.094673811,-2.444121014,4.90746843,-10.22076916,-10.33455939,-5.482357422,4.783672983,-12.79194914,-3.716911513,-4.056019764,-3.41517411,-1.964323489
-4.726773814,-5.891055204,-12.47930669,-25.67946822,-5.450540843,-1.198022905,-4.460115468,-3.318447408,-6.623723701,2.296356465,-7.787552893,-9.408222594,-6.32980273,5.910752762,-10.93484054,-2.990479211,-3.320914386,-4.238526947,-1.946662031
-2.327623955,-7.411976559,-14.20067905,-16.08163694,-5.8917976,-2.7247625,-6.881194752,-7.80738001,-8.460683303,-1.144028875,-5.041875551,-8.650410778,-7.489785115,7.828792943,-6.73139487,-2.447868287,-2.273145365,-4.482554976,-1.2651599
-0.559931412,-7.656043912,-14.11444476,1.86680491,-6.633228259,-3.957631339,-8.563347127,-11.8853876,-8.327079867,-4.531596895,-3.854822977,-8.11494474,-8.652884828,9.950766499,-2.12232795,-2.239622323,-1.173566818,-3.775128384,-0.233561943
-0.066557393,-5.960789675,-12.44136263,17.93821978,-7.470322338,-4.514000596,-9.022635402,-13.76540796,-7.552789851,-7.043167294,-5.196747137,-7.573790088,-9.157461372,11.54298069,0.896949348,-2.232151518,-0.221228082,-2.066005711,0.587958273
-0.784327225,-2.968673062,-10.11296997,23.41307354,-7.970538851,-4.245543743,-8.078157256,-12.53993502,-6.999685892,-8.064041951,-8.390350374,-6.883486473,-8.458244407,12.09850809,1.354591846,-1.978165473,0.47382154,0.217135519,0.782339347
-2.020412767,-0.233741044,-8.094871809,16.73990942,-7.663923548,-3.251182881,-5.909131957,-8.630172318,-6.299395573,-7.237236977,-11.43117417,-6.119425679,-6.509690291,11.56634616,-0.321575858,-1.038253237,0.832952762,2.280513683,0.383937625
-2.955630164,0.860354629,-6.822754603,3.794483691,-6.323244668,-1.813014138,-2.991828763,-3.490300782,-4.429677664,-4.588530101,-12.27074571,-5.412889645,-3.847838432,10.27169398,-2.815884821,0.534438071,0.714421691,3.311765482,-0.163501557
-3.226984094,0.009161164,-6.191513078,-7.103263926,-4.193974292,-0.319186184,0.025063597,1.181239494,-1.02789331,-0.685864557,-10.1809212,-4.741878824,-1.362529385,8.616789607,-4.879352951,1.999374781,-0.111017714,2.880771177,-0.385176154
-3.141037351,-1.963181522,-5.971745021,-11.17756508,-1.970599003,0.816141814,2.484363587,4.241949494,2.863813066,3.415921953,-6.195417654,-3.942596305,0.099280351,6.830089262,-6.02177661,2.332532235,-1.834271595,1.172040053,-0.182269366
-3.327058638,-3.8678878,-6.139630507,-9.54262121,-0.432051827,1.261176601,3.916855778,5.510526187,5.415440482,6.604807455,-2.318463139,-2.942188084,0.110379777,4.968882105,-6.522706415,1.033682964,-4.374674699,-1.081267601,0.080719483
-4.086578481,-5.031122728,-6.769669695,-6.645326114,0.081494474,0.892445372,4.210342915,5.634258555,5.512158941,8.320068836,-0.153888707,-1.958625289,-1.150849041,3.128797767,-6.905660029,-1.298689547,-7.213955437,-2.928796834,-0.104088914
-4.975805817,-5.565569212,-7.662912373,-5.64323077,-0.037520592,-0.139419009,3.633184336,5.553375966,3.792770652,8.87047119,-0.027526004,-1.431571445,-3.013375877,1.605659439,-7.389563611,-3.195159846,-9.486411578,-3.628152565,-0.918099927
-5.011973661,-5.899042829,-8.209985733,-5.876921081,0.099462457,-1.486636351,2.639379473,5.872389524,2.211867143,9.128929352,-1.189927083,-1.713603435,-4.705608301,0.793450652,-7.740925035,-3.309881666,-10.36007878,-2.950190347,-1.986442914
-3.405398028,-6.091573892,-7.764001766,-4.276025312,1.193405165,-2.809979097,1.546189584,6.478858487,2.40404795,9.769304145,-2.730074281,-2.792755951,-5.831462162,0.864623885,-7.542560866,-1.466024273,-9.513123542,-1.223234067,-2.584473827
-0.269421085,-5.633896965,-6.238289292,1.090021187,3.10972444,-3.974323001,0.325536342,6.630186967,4.236217348,10.64662789,-4.264948658,-4.294778633,-6.620299709,1.524967461,-6.560454133,1.11316228,-7.385804925,0.880746385,-2.124099756
3.268995929,-3.95248742,-4.32931026,8.778468776,4.807392842,-5.069545367,-1.285073621,5.483819923,5.849200309,10.86556298,-5.802618257,-5.752666774,-7.724986099,2.120212205,-4.90048732,2.667334464,-4.997048227,2.678228726,-0.549982546
5.693639985,-1.174929569,-3.059205809,14.9752528,4.990543573,-6.220598856,-3.396087823,2.76776364,5.235152291,9.523520524,-7.080392801,-6.890548696,-9.642245427,2.080182647,-2.922780412,2.242169654,-3.403968226,3.73341946,1.630872292
6.022936157,1.572072139,-2.989342185,16.57772546,3.052965757,-7.34176846,-5.624475976,-0.857679906,2.039538132,6.519046255,-7.27229053,-7.680684612,-12.15557131,1.365696569,-1.106587553,0.441613846,-3.142715434,3.920278815,3.662769673
4.360084266,2.70312298,-3.829314375,13.4840669,-0.399590554,-8.071593128,-7.156573952,-4.062593787,-1.987325513,2.725004261,-5.624543479,-8.175028696,-14.2707416,0.531991844,-0.009880797,-1.067967778,-4.012602663,3.306936416,4.933282385
1.689390345,1.228608345,-4.838982216,8.236510433,-3.888806528,-7.998503108,-7.281066374,-5.654039082,-4.360134266,-0.643690484,-2.57698934,-8.338743745,-14.80015081,0.315610923,-0.237319972,-0.957680571,-5.321966294,2.004906287,5.182882182
-0.875186268,-2.455184384,-5.654724764,3.700292951,-6.04988923,-7.035311327,-6.036461169,-5.425547419,-3.963581185,-2.934485131,-0.217264647,-8.095432204,-13.24426196,1.055045325,-2.220293361,0.582690355,-6.386139915,0.132899647,4.476731097
-2.782621585,-6.659410858,-6.701191926,1.037106623,-6.531897959,-5.634710632,-4.431073265,-4.429882581,-2.129022956,-4.454538254,-1.273166707,-7.550937382,-10.31680925,2.417230583,-5.803814346,1.886987557,-6.909173022,-2.076522433,3.07623531
-4.174261741,-9.358008361,-8.690180409,-0.457521887,-6.130981957,-4.619802762,-3.952207901,-4.393541787,-1.725600719,-6.032505638,-7.102814361,-7.140118763,-7.652331005,3.664077315,-9.964755662,1.11753002,-7.009368639,-4.15662167,1.36001915
-5.44437875,-9.366945245,-11.61000149,-2.07027302,-6.072285975,-4.693479115,-5.625813171,-6.59626159,-4.939598042,-8.17025049,-16.222995,-7.471391521,-6.822744133,4.244031128,-13.07737957,-2.174234735,-6.948407812,-5.456005532,-0.197633196
-6.689068346,-6.975178617,-14.22698913,-4.547371804,-7.023701828,-5.961743124,-9.285338592,-10.96975349,-11.50418388,-10.5790305,-24.76837118,-8.916262255,-8.329848675,4.216457736,-13.78625438,-6.495106348,-6.843539414,-5.423062684,-1.100327673
-7.544964728,-3.666144048,-14.78864271,-8.078686943,-8.620306623,-7.828415939,-13.60578724,-16.06634997,-18.77650549,-12.52479088,-28.84562869,-11.25540533,-11.29108514,4.157009373,-11.97076998,-9.357737065,-6.608552133,-3.97476412,-1.019954988
-7.533519368,-1.183533552,-12.52600741,-12.78518102,-9.845387977,-9.356376968,-16.90063614,-19.94157716,-23.55904702,-13.62475871,-27.14634268,-13.69409182,-14.03366442,4.6359588,-9.01479365,-9.029593355,-6.131022853,-1.666685697,-0.006650206
-6.566445829,-0.569707267,-8.664909912,-18.52562523,-9.914010177,-9.843457515,-18.10092873,-21.32585531,-24.19219469,-14.27451788,-21.79544291,-15.28045031,-15.14600268,5.726161675,-6.983822942,-5.742275511,-5.473081418,0.528304065,1.476797425
-5.135285343,-1.728361506,-5.866864775,-23.92460155,-8.915739264,-9.205534201,-17.21298102,-20.25239468,-21.3289664,-15.20755204,-16.6892289,-15.43978347,-14.23310911,6.963694399,-7.1582477,-1.452927465,-4.876936864,1.74614258,2.793760312
-4.002009546,-3.666109149,-6.29236838,-26.00727524,-7.704815992,-7.919011493,-14.99223221,-17.73985654,-16.97698465,-16.54004386,-14.56111171,-14.25391213,-11.91107061,7.779927825,-9.002062411,1.59994755,-4.56100227,1.717594382,3.514379055
-3.651530583,-5.162585327,-9.768820432,-21.79248558,-7.167665464,-6.617152838,-12.20930286,-14.86685844,-12.80994022,-17.24666103,-15.0754449,-12.32907373,-9.192589164,8.004350658,-10.46142975,2.379341568,-4.510267422,0.857669807,3.656690819
-3.966412389,-5.444603921,-13.66824754,-11.23953142,-7.504293474,-5.681506186,-9.180186559,-12.02854129,-9.212028556,-15.74117612,-15.45543397,-10.40949035,-6.839754089,7.975870581,-9.516724639,1.449679741,-4.485747375,-0.118323174,3.594884286
-4.377172879,-4.52748457,-14.80773161,1.107312878,-8.117389553,-5.129285248,-5.93562131,-8.9636003,-5.704480652,-11.25996507,-13.09618544,-9.037198817,-5.162838898,8.155802268,-5.876218001,0.116799145,-4.274164185,-0.758869231,3.710697796
-4.330309848,-3.110290997,-11.98021954,8.172276858,-8.169414021,-4.820926632,-2.779915889,-5.451814464,-2.108809304,-4.910153261,-7.978675388,-8.43965939,-4.262172644,8.595741188,-1.464861582,-0.837031235,-3.955050562,-1.169803684,4.081256241
-3.670228412,-2.128623019,-7.064872293,5.49607222,-7.309570373,-4.742299589,-0.596348398,-1.986358108,0.804253979,0.652259193,-2.857436881,-8.596341581,-4.306396195,8.765405599,0.794396863,-1.707233519,-3.911692041,-1.794417509,4.461551173
-2.651947034,-2.204795275,-3.707825141,-4.432306837,-5.956330713,-5.078412135,-0.462019969,0.266580936,1.847529603,2.889190032,-1.039755454,-9.323372801,-5.476453274,7.942345106,-0.912011837,-3.289451593,-4.522003083,-2.864232558,4.556022062
-1.651927451,-3.272069946,-4.52345199,-12.86585959,-4.923035234,-6.008717643,-2.78135393,0.287923189,0.61270532,1.198792519,-3.586267009,-10.30147298,-7.617272866,5.862798839,-5.866478645,-5.772997448,-5.764095601,-4.003467883,4.316415895
-0.891794312,-4.577625146,-9.025030818,-11.01624937,-4.732506145,-7.42255214,-6.669325215,-1.844031683,-1.866557057,-2.567396758,-8.266767017,-11.12235261,-10.00938033,3.072236753,-11.20411942,-8.170894875,-7.090467488,-4.37406693,3.987019988
-0.418802959,-5.089488398,-13.96153941,2.63727897,-5.207068367,-8.840221379,-10.22450335,-4.71859856,-3.718824034,-5.394106229,-11.17651654,-11.44928936,-11.62316843,0.636950648,-13.86836858,-8.868193597,-7.736330577,-3.307938214,3.859524604
-0.292058057,-4.10458553,-15.80999691,20.11676925,-5.659656351,-9.655971087,-11.6521624,-6.395879504,-3.670304637,-5.277210744,-9.741833046,-11.24007286,-11.7725529,-0.59081469,-12.69844142,-6.873026314,-7.268741306,-0.939349024,3.975714403
-0.706402037,-1.70775202,-13.43520736,29.37543314,-5.496078873,-9.539893738,-10.47190002,-5.732671194,-2.070410966,-2.627148955,-4.717732658,-10.83069193,-10.65474649,-0.571433864,-9.105949184,-2.71350089,-5.95257887,1.705086807,4.068701213
-1.861685464,1.210872599,-8.82512001,23.59196955,-4.712335184,-8.685366431,-7.89013842,-3.244781653,-0.577631174,0.167753902,0.38543912,-10.72503181,-9.273207437,-0.047584042,-5.883998824,1.808356603,-4.616460065,3.302401942,3.809523268
-3.675863394,3.408905196,-5.413923516,6.781104736,-3.891697602,-7.695253556,-6.002956982,-0.81951286,-0.743075909,0.636057119,1.935127257,-11.18832151,-8.726566393,0.100769456,-5.109389283,4.846977339,-4.081084453,3.108756093,3.132159141
-5.650508882,3.9372776,-5.455793108,-9.298040004,-3.741470028,-7.177740741,-6.377170029,-0.447953813,-2.711646884,-1.937631265,-1.238285399,-11.97605886,-9.39971687,-0.403674739,-6.737580951,5.749665695,-4.566231425,1.455234611,2.324337561
-7.099936631,2.575037259,-8.581131053,-14.78519387,-4.574887093,-7.346992081,-9.037102092,-2.890519696,-5.171756475,-6.140159306,-7.261158585,-12.48966199,-10.71699402,-1.003764018,-8.880403974,5.319233922,-5.530333056,-0.526973148,1.783312981
-7.618290851,-0.189182794,-12.54703505,-9.920007949,-6.144833675,-7.918283793,-12.57475127,-7.236560039,-6.58957227,-9.711374742,-12.90759615,-12.31070431,-11.67390506,-0.777415871,-9.425297719,4.931801587,-6.076172631,-1.75205211,1.655359918
-7.395147914,-3.542933686,-15.30892399,-4.581718639,-7.907109807,-8.361935793,-15.24682137,-11.63685794,-6.62879299,-11.3534268,-16.0476718,-11.69863487,-11.71457082,0.765530414,-7.672264616,5.272335772,-5.623903651,-1.951846227,1.705281992
-7.068168031,-6.778008475,-16.52857652,-9.149204852,-9.437654982,-8.315023598,-16.19817027,-14.61473074,-6.490004995,-11.60610001,-16.90360817,-11.58726826,-11.22267088,3.19652257,-4.767716431,5.735778181,-4.346911777,-1.793485635,1.565506693
-7.185020059,-9.471825264,-17.31414753,-24.36313638,-10.64595453,-7.845244308,-15.91296031,-15.97022746,-7.856669874,-12.18559248,-17.31683785,-12.97958712,-11.20954609,5.382296567,-2.739100156,4.964032653,-3.047379339,-2.280435765,1.159688765
-7.708142409,-11.39551457,-18.67117361,-39.27918421,-11.65277627,-7.38508854,-15.63830043,-16.65880606,-11.36639728,-14.45987197,-18.89577691,-16.14554536,-12.45226639,6.241932484,-3.004541047,2.051599959,-2.572999738,-3.931801551,0.905998544
-8.001221339,-12.36820893,-20.28309546,-39.84326834,-12.50739333,-7.401115117,-16.3131956,-17.8312427,-15.94766048,-18.35386695,-21.6904145,-20.24390963,-14.79094956,5.47892368,-5.511564809,-2.568467962,-3.214499962,-6.383107131,1.467749273
-7.352503579,-12.28475339,-20.8266298,-21.36090941,-13.03649082,-8.046855106,-17.85159413,-19.8281153,-19.60275273,-22.49017996,-24.38133319,-23.70515689,-17.15678443,3.75876314,-9.019023496,-7.252710617,-4.521732142,-8.68601039,3.208032483
-5.630977086,-11.31399867,-19.48585064,5.847309436,-12.9649518,-9.044429688,-19.27002414,-21.88692688,-20.95178213,-25.28231546,-25.57908259,-25.13717655,-18.29787042,2.234118449,-12.09434147,-10.15985184,-5.649537277,-10.01888192,5.784221076
-3.532954493,-10.02503521,-17.11490893,23.18495936,-12.18807444,-9.867633244,-19.45990896,-22.72205633,-20.19913335,-25.9744903,-24.95484798,-24.11557037,-17.61651394,1.791253761,-13.94350159,-10.35692724,-5.953862681,-10.2203179,8.235997394
-2.190154353,-9.198240777,-15.76712434,18.17252976,-10.94209882,-10.08972638,-17.95171622,-21.47711948,-18.71505187,-24.83161303,-23.25300062,-21.3228297,-15.48345602,2.550207165,-14.51895052,-8.236789048,-5.397590146,-9.751677316,9.535521039
-2.421695335,-9.349915923,-16.84661025,-5.120960331,-9.716594361,-9.655447965,-15.1246075,-18.32638603,-17.66138297,-22.53571226,-21.35447046,-18.01114022,-12.85936302,3.914630065,-14.06963577,-5.067312892,-4.497138751,-9.193661511,9.201658953
-4.19598333,-10.31102845,-19.54067638,-28.55360948,-8.972910266,-8.898328243,-11.82273318,-14.33457994,-16.93015798,-19.51929218,-19.40188231,-15.25115206,-10.60884315,5.05479751,-12.73551729,-2.144485585,-3.893456455,-8.753869543,7.536789963
-6.691996417,-11.24978144,-21.11876134,-33.86322316,-8.880243048,-8.299859812,-8.789260142,-10.75894258,-15.36135692,-15.87898386,-16.83536839,-13.50416718,-9.0701851,5.437525367,-10.60098912,-0.203383556,-3.891522691,-8.204183658,5.351044383
-8.86985011,-11.21969459,-19.10099526,-17.07638956,-9.24525415,-8.158036592,-6.371602305,-8.338340594,-12.03367589,-11.82671065,-13.25011492,-12.70181729,-8.137335884,5.055844078,-8.059636774,0.615841408,-4.299582423,-7.254276262,3.428293619
-10.08243279,-9.873926522,-13.56080938,8.339665788,-9.650334526,-8.390711188,-4.620259282,-7.029601626,-7.427212908,-8.05772094,-9.186331936,-12.58470641,-7.637371249,4.27617918,-5.977789814,0.459170843,-4.648509184,-5.974337217,2.140763671
-10.28531191,-7.787309487,-7.507819717,22.28268577,-9.678508049,-8.608679934,-3.541265173,-6.25835564,-3.335070659,-5.507880699,-6.032967616,-12.92160304,-7.578601361,3.485590677,-5.324431657,-0.476547034,-4.588130097,-4.84765559,1.43663787
-9.779098515,-6.076716474,-4.789282429,14.09894549,-9.087076753,-8.411064431,-3.188745415,-5.395201282,-1.50046045,-4.628961605,-5.068400236,-13.47245408,-8.054543171,2.809498433,-6.477449946,-1.912870104,-4.149320083,-4.379427337,1.098272735
-8.80355188,-5.549278538,-7.052471677,-9.054117927,-7.871675178,-7.69832508,-3.52138982,-4.10072279,-2.117570292,-4.872396623,-6.473130799,-13.88651287,-8.975100583,2.066930058,-8.797143712,-3.369173793,-3.688764115,-4.601024634,0.988117834
-7.371128593,-6.016292556,-12.22961093,-28.22029439,-6.24087722,-6.774452571,-4.230925827,-2.385810772,-3.528705074,-4.968267988,-9.1866899,-13.79521365,-9.971747474,0.950607155,-10.90520892,-4.25271785,-3.582690275,-4.925855847,1.092503375
-5.451482943,-6.340495398,-15.89149974,-27.94482327,-4.538315863,-6.147429931,-4.798532561,-0.483046382,-3.479375286,-3.882734391,-11.72898894,-13.10419766,-10.62803711,-0.70919363,-11.53984708,-4.220560783,-3.916696969,-4.531221703,1.409008378
-3.271412047,-5.254068713,-14.52656595,-8.358194336,-3.128708233,-6.153288361,-4.807119288,1.287402447,-0.970455964,-1.682044048,-13.26529195,-12.1901219,-10.82908559,-2.761380492,-10.37077051,-3.524269236,-4.407612379,-2.999326918,1.859016482
-1.393022988,-2.385152452,-8.216956631,15.5260787,-2.265972294,-6.673461387,-4.26185558,2.571759196,2.80030518,0.449320105,-14.01884678,-11.7079774,-10.86962332,-4.735384121,-8.174834089,-2.959243739,-4.612472682,-0.720273078,2.3286185
-0.452704043,1.271870408,-0.624658313,26.22501212,-1.998438487,-7.170822072,-3.620520928,3.011294026,5.2106986,1.082342179,-14.75392739,-12.06374463,-11.17428468,-6.033570762,-6.273024426,-3.34003475,-4.268019147,1.270830742,2.760372618
-0.767225113,3.837952282,3.680350456,17.43697822,-2.183633383,-7.048673112,-3.46876922,2.332778507,4.12706432,-0.413410615,-15.87723028,-12.98534695,-11.8666451,-6.224006389,-5.681565853,-4.860888549,-3.512029433,1.923384064,3.146088485
-2.14072762,3.698903691,2.449914476,-2.029839862,-2.628255093,-6.090137187,-4.086283125,0.49438024,-0.526922766,-3.515999681,-16.99415629,-13.63445764,-12.60001366,-5.27908554,-6.584207354,-6.870110679,-2.824628846,0.825196315,3.392862987
-4.029194654,0.550383167,-2.907601421,-16.54410633,-3.26121695,-4.652945492,-5.255943186,-2.224470998,-6.740118607,-7.125061901,-17.28411322,-13.26530109,-12.84374173,-3.613662903,-8.406836612,-8.299101542,-2.727344744,-1.563322581,3.219571016
-5.909326762,-4.371216004,-8.749774073,-16.59793007,-4.189065629,-3.457683009,-6.469561382,-5.296413657,-11.88876385,-10.48773345,-16.29509764,-11.91431655,-12.39166574,-1.877070609,-10.29429792,-8.457965503,-3.448611524,-4.222874928,2.27201698
-7.540130916,-9.017392929,-12.0612714,-5.590280338,-5.555681649,-3.108916225,-7.351811452,-8.169020802,-14.53225179,-13.62910327,-14.40610497,-10.49186836,-11.62429643,-0.608200277,-11.56565699,-7.584619474,-4.787303423,-6.19039792,0.449490655
-8.930855011,-11.71052143,-12.43788732,4.534737265,-7.29836115,-3.699403211,-7.946621648,-10.49698418,-15.17937305,-16.9461084,-12.55559486,-10.10909062,-11.25156201,0.029692986,-11.89004422,-6.702471505,-6.264314353,-7.065829229,-1.817893322
-10.10718242,-12.00149671,-11.78543705,4.208608514,-9.016874569,-4.793243503,-8.636708928,-12.23080591,-15.56072521,-20.42877172,-11.52108458,-11.14855476,-11.72984858,0.255048522,-11.24850055,-6.879486451,-7.445314457,-7.127077388,-3.648882846
-10.93643922,-10.69510195,-12.2718976,-5.953085058,-10.11957965,-5.793328732,-9.780830134,-13.5249828,-17.1096995,-23.32545316,-11.41076057,-12.87509499,-12.86206592,0.417374652,-9.890343698,-8.451172088,-8.19400731,-7.048108336,-4.198213323
-11.18503873,-9.128945496,-14.40263414,-16.74395097,-10.19390294,-6.396312193,-11.38202113,-14.56936053,-19.87081845,-24.64069854,-11.77169993,-13.97851088,-13.94985762,0.692459657,-8.348258436,-10.78899028,-8.668332474,-7.436686107,-3.232308956
-10.73607163,-8.268716259,-16.77383539,-19.19548245,-9.336993871,-6.770909386,-13.05557027,-15.48860374,-22.58763573,-24.04359647,-12.11549996,-13.64495379,-14.37973992,0.977034276,-7.356300386,-12.7567917,-9.069710041,-8.458797509,-1.329013256
-9.733412845,-8.22619588,-17.50008917,-12.4483843,-8.16707588,-7.325572027,-14.30154316,-16.36549088,-23.74585441,-22.3301807,-12.30294197,-12.25224164,-14.12449653,1.075038837,-7.51358086,-13.46856148,-9.354262862,-9.725199569,0.512237265
-8.493450947,-8.433962328,-15.90994088,-3.88014203,-7.457230637,-8.275543348,-14.83938291,-17.31239679,-22.67555978,-20.94323481,-12.44034406,-11.05016604,-13.70083309,1.00962485,-8.808473053,-12.76776945,-9.160471309,-10.47761077,1.58912449
-7.258569054,-8.229765006,-13.01823214,-1.890725104,-7.628136959,-9.38982311,-14.73641946,-18.466631,-19.91759587,-20.89294465,-12.48043571,-11.04054259,-13.60887573,1.158877281,-10.39609128,-11.12338673,-8.051930238,-9.991505562,1.983150261
-6.028699413,-7.364134748,-10.47709365,-8.170924948,-8.464242856,-10.14552584,-14.25906837,-19.86574451,-16.72988405,-21.97873405,-12.03359107,-11.99588327,-13.76102261,2.036837224,-10.96728542,-9.12284982,-5.9220597,-8.019687977,2.407883035
-4.639358081,-6.084438699,-9.058753672,-16.38379894,-9.264135081,-10.16268643,-13.60759164,-21.29453531,-14.23794641,-22.97224436,-10.66152872,-12.50021425,-13.44390592,3.846970073,-9.606741259,-7.027569765,-3.250001053,-5.046638345,3.523374148
-3.019132537,-4.816470765,-8.058831895,-18.18815768,-9.315097505,-9.538021095,-12.76406918,-22.25859915,-12.8560895,-22.59317118,-8.380191863,-11.05934644,-11.89399699,6.172112304,-6.551383516,-4.729639502,-0.967415876,-2.158808161,5.272619311
-1.381235368,-3.762442314,-6.1073472,-10.95602433,-8.347545837,-8.768598664,-11.55186727,-22.1632447,-12.25139012,-20.43815168,-5.805688327,-7.396040287,-9.00449605,8.112432109,-3.191778501,-2.05872084,0.037435231,-0.508279577,6.799669403
-0.155216652,-2.750405359,-2.596909417,-0.195397962,-6.65907917,-8.307507751,-9.814074407,-20.61672391,-11.69048687,-17.10783959,-3.673206386,-2.824562064,-5.526631021,8.848557052,-1.165667243,0.905561121,-0.524719697,-0.611095781,7.04477209
0.29785047,-1.427515669,1.581030607,5.409335076,-4.861216488,-8.128508925,-7.543200686,-17.66480873,-10.45298265,-13.52581334,-2.098844476,0.680820192,-2.543192311,8.243835578,-1.127934152,3.812381918,-2.110958062,-1.911301675,5.556996452
-0.058588931,0.3953976,4.64623048,1.793459866,-3.474385278,-7.699058715,-4.882934267,-13.79653798,-8.13078709,-10.1585893,-0.315595517,2.01923816,-0.631325885,7.011826225,-2.140388125,6.2904288,-3.626572435,-2.97353077,2.880387765
-0.931287662,2.54065751,5.337835052,-6.869232298,-2.667939934,-6.431747211,-2.064432157,-9.718281609,-4.809398036,-6.87380429,2.714357689,1.847569916,0.565462926,6.263732453,-2.249906479,8.177975313,-4.073298448,-2.30836501,0.209607944
-1.936832272,4.549137871,3.892185854,-11.95248524,-2.283255204,-4.268148279,0.615279953,-6.053768828,-1.139012176,-3.506204569,7.2030564,2.045397249,1.954869741,6.714262489,0.058605253,9.467769007,-3.169141989,0.613312233,-1.409031468
-2.861470202,5.951037649,1.770842162,-8.196644105,-2.048714592,-1.901175643,2.756013933,-3.167282657,1.797948122,-0.483559734,11.90096083,4.131265103,4.090132497,8.106910247,4.56626342,10.00514758,-1.552847158,4.813646891,-1.713937366
-3.711793283,6.480221742,0.417714809,1.39406885,-1.788511081,-0.40528195,3.860848508,-1.197901663,2.913603704,1.210025256,14.61899043,7.8740572,6.501545833,9.291241814,9.179327457,9.268976722,-0.445307313,8.159919637,-1.249468073
-4.538936419,6.074078195,0.136434307,7.998753892,-1.500314785,-0.517599015,3.493399792,-0.223038046,1.715901527,0.802600358,13.68209819,11.22642872,7.866074661,8.92956821,11.13746919,6.556136275,-0.970996728,8.486846722,-0.829050851
-5.242665859,4.721730097,0.021655713,4.797768495,-1.321757426,-2.110530099,1.552098297,-0.373147941,-1.28641554,-1.461550058,9.245424614,11.68470489,6.93900152,6.36467462,8.780986021,1.555105319,-3.531239846,4.837741762,-0.915617824
-5.578721884,2.375634836,-1.068352698,-6.529145302,-1.471782328,-4.265230592,-1.533938788,-1.770789134,-4.744519524,-4.307061773,3.393954074,8.071526978,3.535393066,2.071465073,2.666159001,-5.094630514,-7.565914177,-1.9364973,-1.391514654
-5.381835042,-0.921839005,-3.398416618,-16.32910259,-2.198150164,-5.893561439,-4.895339835,-4.325590947,-7.206993308,-6.347838812,-1.154009235,1.422289915,-1.214472666,-2.587515638,-4.723156353,-11.75656332,-11.80314069,-9.583696666,-1.811231967
-4.780849613,-4.778137386,-6.076554289,-14.41489982,-3.683720912,-6.435338342,-7.620681811,-7.55890477,-7.976631121,-7.199366548,-2.815213532,-5.641199999,-5.546514063,-6.110640513,-10.43479278,-16.4442583,-14.83765286,-15.58915314,-1.831846615
-4.159593048,-8.329715301,-7.81715413,1.440903365,-5.882211313,-6.117230385,-9.233059613,-10.64470362,-7.465762149,-7.777053208,-2.061169401,-10.53374811,-8.162497329,-7.612344291,-12.67020903,-17.82639692,-15.73813109,-18.33890542,-1.433931386
-3.849326562,-10.48789999,-8.04706916,22.76394624,-8.372178973,-5.624962303,-9.915180526,-12.71708877,-6.772703043,-9.436903955,-0.82602983,-12.14015493,-8.927667236,-7.141534713,-11.53889818,-15.94282735,-14.40619213,-17.65039518,-0.806838261
-3.816896591,-10.49378614,-7.382765342,35.68398843,-10.40304664,-5.504884958,-10.31061532,-13.29906618,-6.812556229,-12.65129715,-0.923373927,-11.13558769,-8.699435161,-5.45321412,-8.60028226,-12.13641576,-11.54931567,-14.47969358,-0.098651857
-3.662366706,-8.421627424,-7.077722081,30.3683776,-11.2226964,-5.794760542,-11.03825847,-12.58970926,-7.702106296,-16.38885941,-2.73770452,-9.172669313,-8.51532389,-3.47259653,-5.683715676,-8.22967093,-8.30697035,-10.14249445,0.683843189
-2.982315428,-5.222035126,-7.933194895,7.669669384,-10.54159264,-6.150378865,-12.27468999,-11.39889795,-8.881499653,-18.80919983,-5.167049529,-7.70013889,-8.830324206,-1.82389089,-3.857098537,-5.491318017,-5.715351787,-5.61508033,1.547805089
-1.80235533,-2.190653278,-9.611168524,-21.57910602,-8.797966785,-6.298092729,-13.70368187,-10.7214116,-9.812746584,-18.73714609,-6.736231383,-7.269872236,-9.370196698,-0.668613948,-3.139121141,-4.066003116,-4.264207666,-1.302286661,2.349470331
-0.663786102,-0.185065758,-10.92437006,-43.64860902,-6.950822194,-6.377930654,-14.84076932,-11.17296609,-10.57771367,-16.6528961,-6.867605289,-7.632873371,-9.605146636,0.14969707,-2.924041061,-3.190046407,-3.7585354,2.737945799,2.828876271
-0.210740676,0.857094002,-10.83745872,-50.05680209,-5.856836563,-6.862998077,-15.4457894,-12.61967502,-11.7786668,-14.30184849,-6.245473639,-8.271236146,-9.342678934,0.838959707,-2.622443679,-1.953675513,-3.548437491,6.427551559,2.858902165
-0.57265334,1.737540018,-9.315604526,-41.34747371,-5.647462994,-8.128368508,-15.67671434,-14.23830398,-13.78401964,-13.21312841,-6.040070468,-8.800550352,-8.900573744,1.473516944,-2.018756792,-0.012145937,-2.989478063,9.490883219,2.659739265
-1.082588834,3.288140407,-7.295229286,-24.77862972,-5.59983448,-10.05420735,-15.86275646,-14.99303749,-16.01202915,-13.3956959,-6.73449339,-8.986851878,-8.742821773,1.984237621,-1.204836084,2.253435393,-1.855203359,11.57605833,2.707014051
-0.663054633,5.682326765,-5.796825865,-8.541374321,-4.671074676,-12.01764795,-16.09998854,-14.25608747,-17.00737438,-13.37382814,-7.600610479,-8.575028547,-8.95109793,2.282323389,-0.312887945,4.166549732,-0.447272195,12.52770179,3.333260403
1.326444431,8.305559746,-4.927811773,3.040133028,-2.35279071,-13.29149167,-16.03157645,-12.19903184,-15.42646931,-11.58136501,-7.27599737,-7.278053886,-9.039959265,2.399216436,0.64453483,5.361980069,0.654539114,12.56265472,4.345532868
4.422206163,10.27391909,-3.639021003,10.41998666,0.796515233,-13.52244523,-15.03420749,-9.711063727,-11.2155175,-7.927489712,-4.940872031,-5.027085504,-8.309298917,2.531827555,1.714608141,6.046828024,1.012294216,12.19640628,5.036544091
7.159874007,11.15665596,-0.509793215,16.1869431,3.398029339,-12.90358181,-12.70167208,-7.885909584,-5.966619553,-4.137108283,-1.094203728,-2.227499843,-6.452158025,2.950017806,2.854528384,6.705006513,0.611598449,11.95869452,4.662501893
7.989121549,11.28538318,4.988935519,21.58946386,4.167597692,-11.92582404,-9.259454156,-7.383697578,-1.993952045,-2.47593237,2.721776302,0.315714243,-3.908482714,3.813066906,3.887373248,7.508788018,-0.191666434,12.07877836,3.043492615
6.39533518,11.37928241,11.72133094,25.0200208,2.860729942,-10.94942552,-5.568139676,-8.049409118,-0.69343695,-3.858066335,5.026717735,1.85543897,-1.656209629,5.011302558,4.619223339,7.960252409,-0.991694396,12.33425034,0.787765383
3.396669352,11.80568581,17.25605334,23.38328187,0.540624314,-9.970581575,-2.666570939,-9.008244964,-1.415639175,-6.914317841,5.458813483,2.217315562,-0.578552082,6.156073881,4.992966328,7.120247052,-1.642710693,12.15609175,-1.084722473
0.984591123,12.13038197,19.21573223,15.05728762,-1.069043824,-8.763811124,-1.147893675,-9.166151176,-1.806865331,-8.854817745,4.982074677,1.944072342,-0.870902127,6.763598905,5.114444882,4.314810587,-2.301060723,10.93857499,-1.852360847
0.830539734,11.39031211,16.72617727,2.088615408,-0.718201661,-7.23842891,-0.796410293,-7.809035105,0.494460211,-7.497042866,5.14081249,1.926220048,-1.907333627,6.545424801,5.11740691,-0.198688408,-3.179984061,8.391859779,-1.577103298
3.133489882,8.908728249,10.98434779,-10.13374168,1.539689364,-5.660645503,-0.741452654,-4.960522215,5.981468617,-2.871785319,6.97426744,2.799334255,-2.637910514,5.617054036,4.999950103,-5.145116582,-4.253411134,4.748205911,-0.977493092
6.415428886,4.982472071,4.551617353,-15.73938724,4.396232895,-4.521138393,-0.033046137,-1.331011023,12.62033712,2.836668824,10.38076429,4.572665126,-2.222445389,4.458734809,4.603220667,-8.863601592,-5.194182125,0.704333733,-0.803474951
8.424282017,0.835355179,-0.160499722,-12.02519645,6.158190603,-4.152174315,1.736266632,2.057645046,16.97949195,6.912184018,14.28797498,6.74093213,-0.488275154,3.622487313,3.773744756,-10.26357564,-5.623343692,-2.875611633,-1.236857631
7.542563765,-2.176686056,-2.210891441,-1.447887232,5.809724114,-4.430519726,4.159196854,4.322708203,16.43067638,7.964365188,17.36358135,8.719958717,2.02789187,3.374386591,2.571328227,-9.447370062,-5.458371934,-5.332119417,-1.810192194
3.766207044,-3.489376262,-2.411959727,9.603013254,3.540610855,-4.838958572,6.247420451,5.007924125,10.91243271,6.5962142,18.69551196,10.20443493,4.4035529,3.533407281,1.320357934,-7.559084837,-5.038725201,-6.444391684,-1.891140552
-1.366699168,-3.631666,-2.462707016,14.75387228,0.439709936,-4.855796591,7.003868917,4.11720662,3.033200617,4.509368097,18.05241894,11.1722853,5.778365159,3.636204036,0.419740464,-5.967953221,-4.887886721,-6.402743519,-1.300329103
-5.796157459,-3.657270865,-3.608152548,11.82301792,-2.340033223,-4.360257137,5.973618944,1.968462589,-3.552621099,2.954492402,15.74909947,11.61553981,5.688014563,3.304805961,0.034528234,-5.370729651,-5.294563315,-5.575210977,-0.525447464
-8.192625794,-4.187883057,-5.794578605,4.255414078,-4.302191472,-3.722126576,3.460323168,-0.985809863,-6.376099649,1.871139239,12.39512783,11.32579236,4.175603615,2.523558442,-0.082198136,-5.44561259,-6.074776744,-4.265984747,-0.346629088
-8.622259167,-4.886428252,-7.885489172,-1.473652035,-5.724464934,-3.500622153,0.325014244,-4.266204125,-5.495347758,0.34688517,8.729691357,9.983819377,1.703080405,1.59901332,-0.458228428,-5.273108867,-6.737647645,-2.650382886,-1.190906773
-8.249219565,-4.820935236,-8.699762131,-0.858777498,-7.173508296,-3.992678464,-2.466949339,-7.393332887,-3.114665969,-2.162973626,5.510087614,7.488882016,-1.054594628,0.844763221,-1.508782434,-4.171240761,-6.926358905,-0.90295875,-2.758553668
-8.354749474,-3.414376229,-8.024711966,4.911724475,-8.855061611,-4.985079007,-4.269712848,-9.893032372,-1.848123747,-5.036665845,3.319049982,4.217145888,-3.446185617,0.281562078,-3.145699206,-2.30084468,-6.748244183,0.652101865,-4.229371209
-9.375226292,-1.150416321,-6.799696653,9.580096514,-10.31353846,-5.893784906,-4.936869798,-11.33939524,-2.878023495,-6.846696825,2.297784349,0.948249076,-5.034909873,-0.354132463,-4.695817561,-0.59478267,-6.684587272,1.576103146,-4.873548664
-10.59645536,0.620092973,-6.331985615,6.687682908,-10.69218647,-6.169200928,-4.721532495,-11.44808555,-5.246322717,-6.549774868,2.02153609,-1.509827901,-5.679146497,-1.268641783,-5.250555799,-0.08976381,-7.133512828,1.578715849,-4.570900902
-10.67017495,0.679534785,-7.184757527,-4.893141629,-9.339520631,-5.657330006,-4.025774664,-10.1846944,-6.678234553,-4.437473811,1.740680467,-2.709030938,-5.479084129,-2.233242577,-4.268541006,-1.182222657,-7.977849593,0.813817405,-3.840420971
-8.573061123,-1.039903918,-8.652261084,-19.26192356,-6.314427747,-4.670699,-3.18377063,-7.834897946,-5.292059654,-1.999605196,0.93574864,-2.680795031,-4.637159854,-2.550732587,-2.040199686,-3.356745986,-8.5767023,-0.077507934,-3.393477882
-4.359417678,-3.268562567,-9.27432153,-27.40097234,-2.442699319,-3.762533786,-2.393807807,-4.993067639,-1.005018535,-0.80520006,-0.197504506,-1.755204654,-3.338050064,-1.488800624,0.340363591,-5.546846268,-8.228255812,-0.295754181,-3.591537005
0.781841569,-4.235172156,-7.995403665,-23.98088672,1.095983802,-3.405415417,-1.78551054,-2.448191019,4.282023208,-1.343899147,-0.774864851,-0.297941225,-1.736686375,1.104811647,1.558347179,-6.80713694,-6.735989426,0.608561235,-4.220519832
5.19100722,-2.898776689,-5.027122446,-11.70324768,3.366482695,-3.796750498,-1.512967654,-0.974901145,7.792439969,-2.779079757,0.136211294,1.395584024,-0.044655525,4.500047325,0.900005232,-6.783138796,-4.598148641,2.429569949,-4.699798703
7.683628644,0.364041459,-1.694674621,0.563872331,4.091185908,-4.865625485,-1.762271244,-1.07770776,7.519485567,-3.767662185,2.667479848,3.016646241,1.397059393,7.395980331,-1.214001487,-5.690172021,-2.645900344,4.465924839,-4.501278963
8.169932233,4.107433263,0.616444181,4.713771162,3.662531014,-6.390897242,-2.645838596,-2.781468798,3.370408001,-3.608682463,5.747946599,4.154422964,2.178231172,8.677981729,-3.38355984,-3.94111093,-1.426933852,6.043379298,-3.44566313
7.563115767,6.861428433,1.528299878,-0.048632492,2.804242993,-8.097118205,-4.060131786,-5.579196057,-2.844685545,-2.750508124,7.550664809,4.392495089,2.018715799,8.084650376,-4.049582157,-1.824670531,-0.857890007,6.984487849,-1.717093832
7.06135182,8.018154587,1.827523483,-6.500455535,2.125176298,-9.680592038,-5.630165082,-8.602436026,-8.48261643,-2.276902805,6.579381803,3.570755936,0.969199399,6.294967718,-2.498020986,0.478679929,-0.44148778,7.629878329,0.304553099
7.29588811,7.910547454,2.547640194,-5.437722225,1.831553344,-10.82195292,-6.816792373,-10.96883118,-11.48350263,-2.867112674,2.677295924,1.978652739,-0.565061161,4.385937567,0.609879244,2.624524777,0.151149678,8.382245708,2.192003595
7.915328215,7.158307429,3.761423208,6.242970017,1.72983672,-11.25411564,-7.151624098,-12.14406131,-11.30128367,-4.139194412,-2.759933913,0.252588534,-2.036886473,3.092883174,3.572695414,3.93716545,0.664477217,9.165174279,3.511087749
7.872308643,5.96044652,4.187425745,22.0878179,1.465830752,-10.87174529,-6.467400592,-12.11901114,-8.903305244,-4.922117873,-7.550112361,-1.005948219,-3.072900572,2.435456476,4.678115458,3.638004253,0.407631745,9.298336646,3.840263138
6.199077539,3.991672861,2.082862783,30.42110116,0.818704199,-9.788842638,-4.980169872,-11.29668081,-5.98764375,-4.208368299,-9.969570621,-1.61164006,-3.657683159,1.949036857,3.27094057,1.391008596,-1.128596185,7.966817168,2.895084696
2.731912867,0.961128978,-3.204852939,23.34051952,-0.137389751,-8.270080823,-3.166987463,-10.16390567,-3.980170097,-1.992626022,-9.650601453,-1.864077734,-4.041790623,1.259584971,0.151444743,-2.25786344,-3.715414001,4.953471503,0.743657821
-1.704420129,-2.735498186,-10.30121892,3.286713649,-1.089235077,-6.572028155,-1.512221762,-8.970063602,-3.388612788,0.670498714,-7.569559258,-2.238764776,-4.448876729,0.48118006,-2.962280193,-5.970612501,-6.39891043,1.036470704,-2.06797036
-5.75396316,-5.939005006,-16.35761503,-18.15318821,-1.701930427,-4.825395531,-0.278368117,-7.634903756,-3.772918682,2.408265549,-5.214390613,-2.952416499,-4.825978388,0.10661086,-4.534793585,-8.282762557,-8.119163328,-2.324574271,-4.664130385
-8.289538749,-7.384245091,-18.80011532,-28.41277276,-1.84558338,-3.065792673,0.563771748,-5.945510331,-4.199733944,2.475613597,-3.573498243,-3.763015752,-4.851863335,0.522306482,-4.123558329,-8.430482869,-8.447453986,-3.839304302,-6.246963144
-8.957390603,-6.589401948,-16.9870588,-22.74663176,-1.681937302,-1.384465116,1.220066909,-3.886326821,-3.833725543,1.203364836,-2.652887085,-4.166796138,-4.208082262,1.603787022,-2.504357404,-6.763331456,-7.833248601,-3.164071412,-6.514666009
-8.186253057,-4.242367293,-12.51385408,-6.914918113,-1.556988428,-0.042510695,1.868149118,-1.835377031,-2.355908325,-0.324338619,-1.789422712,-3.821779915,-2.897955093,2.760317654,-0.994751971,-4.451428357,-7.154636821,-1.040424047,-5.791442262
-6.746119922,-1.749398266,-7.959613651,7.980448507,-1.771624551,0.599888303,2.506326017,-0.445516403,-0.080961123,-1.059280614,-0.433776059,-2.84797714,-1.352746077,3.38786454,-0.520817752,-2.711415134,-6.954696431,1.276443297,-4.768089762
-5.239474627,-0.293902604,-5.098427263,13.99031207,-2.378698266,0.330933675,2.948384493,-0.259685642,2.193359254,-0.658376881,1.235547496,-1.77353359,-0.229616103,3.327796377,-1.102629111,-2.114893563,-7.015858828,2.830552797,-4.043552697
-3.884677495,-0.134589737,-3.977534936,11.28713722,-3.134982434,-0.675398935,2.94802631,-1.319459265,3.510236698,0.386232947,2.332770064,-1.194839409,-0.044634844,2.933679739,-2.056359185,-2.441547037,-6.635707897,3.407399907,-3.799154298
-2.660307809,-0.642160986,-3.481357666,6.1012798,-3.637069391,-1.855916839,2.352257268,-3.05862962,3.152429611,1.154372413,1.887831438,-1.430754939,-0.901824522,2.706776015,-2.645163378,-3.090440457,-5.361123818,3.350892626,-3.812776321
-1.58157906,-0.953019269,-2.728446791,4.137296666,-3.558608149,-2.554079551,1.179172632,-4.594425306,0.992610432,0.901357104,-0.40258602,-2.407692805,-2.489329874,2.845207677,-2.609097707,-3.637575884,-3.532196272,3.037464523,-3.742609334
-0.819110881,-0.648047265,-1.982156151,5.518619053,-2.851690821,-2.439889686,-0.414527419,-5.257289241,-2.371238289,-0.537515635,-3.845605822,-3.784712491,-4.304040537,3.117606428,-2.183417041,-4.064839287,-2.135521604,2.541335776,-3.416981545
-0.570088375,0.073946956,-2.265111009,5.497946044,-1.803221878,-1.751693948,-2.227127919,-5.024400832,-5.835684202,-2.741798683,-7.075671532,-5.143370789,-5.913721011,3.165618639,-1.689723975,-4.51639025,-2.04941129,1.784110565,-2.90965094
-0.848499283,0.762626782,-4.093778116,-0.181708958,-0.919449408,-1.161330821,-4.0834219,-4.566633509,-8.338655449,-5.034641875,-8.803985436,-6.085713506,-7.082979177,2.942366979,-1.137923822,-4.870235945,-3.289456763,0.95996025,-2.397042995
-1.433903517,1.191646356,-6.59487517,-10.49404151,-0.695648793,-1.332108647,-5.836439534,-4.857166676,-9.459241559,-6.906086966,-8.497939142,-6.251619945,-7.735511539,2.865948897,-0.21836143,-4.57858462,-4.88594279,0.728536721,-1.978350979
-2.047231842,1.482368036,-7.954878969,-19.42581863,-1.374970234,-2.46899294,-7.321294404,-6.56638387,-9.670535757,-8.271305476,-6.582705741,-5.383762441,-7.857899686,3.522510253,1.328320591,-2.995015065,-5.523031377,1.856831529,-1.63316792
-2.579816924,1.809678701,-6.934425519,-21.13434521,-2.802986641,-4.172671371,-8.328319532,-9.604304794,-10.00657463,-9.417297087,-4.105289573,-3.49899995,-7.460753587,5.160342822,3.334983115,0.029043971,-4.460623979,4.516262818,-1.323931595
-3.130558852,2.050166162,-4.129833039,-15.2465319,-4.451889899,-5.691610647,-8.648166636,-13.0861704,-11.30569556,-10.68007212,-2.142666597,-1.041207282,-6.616734404,7.408666066,5.199533229,3.766330931,-2.042899257,7.836059819,-1.098440077
-3.788271778,1.787070765,-1.757251792,-7.373708917,-5.628010186,-6.38411468,-8.180192046,-15.74837106,-13.55089993,-12.07413047,-1.339557658,1.195760399,-5.502004294,9.462710895,6.270871234,6.819449078,0.56338685,10.20206812,-1.059789281
-4.368020793,0.72383815,-1.96078833,-4.186321616,-5.795028177,-6.067475601,-7.035492939,-16.58483018,-15.8265205,-13.15959548,-1.793229859,2.441339618,-4.368635233,10.57738208,6.283654578,7.850139333,2.158549033,10.22152328,-1.227311705
-4.404446758,-0.873389555,-4.975210835,-7.343227649,-4.867752685,-5.036519297,-5.553213576,-15.35644464,-16.98255735,-13.30057534,-3.226103954,2.406908358,-3.456914739,10.46399155,5.446585087,6.372332481,2.216931405,7.701642894,-1.448087736
-3.501185358,-2.169323766,-8.726382594,-11.77408781,-3.307299702,-3.786298671,-4.194016295,-12.70509862,-16.53616301,-12.18147372,-5.220252399,1.470689153,-2.923491097,9.302126602,4.113209583,3.078034456,1.034664365,3.897106813,-1.488797011
-1.789606732,-2.294038416,-10.33489196,-10.11684879,-1.922678924,-2.675399474,-3.348652898,-9.822747478,-15.09938604,-10.1969312,-7.333981854,0.390217648,-2.840213792,7.439633293,2.366234972,-0.529274748,-0.677177116,0.777490449,-1.260169817
-0.075425496,-1.028925908,-8.393214584,0.325878525,-1.445372108,-1.772522906,-3.155458973,-7.859212424,-13.94620453,-8.344649441,-9.100865995,-0.280719835,-3.233896409,5.118225025,-0.052417367,-2.964238422,-2.341636895,-0.216147045,-0.970478614
0.558216426,0.929485741,-4.165967094,14.1849287,-2.104350255,-0.955514112,-3.424671316,-7.378055424,-14.00923811,-7.59076048,-10.04748583,-0.617083053,-4.086027466,2.48944998,-3.346117249,-3.537162445,-3.774449558,0.931861571,-1.031494294
-0.514101028,2.393787233,-0.673814171,21.47445019,-3.468893516,-0.130421735,-3.717780459,-8.1315385,-15.09087639,-8.125924199,-9.836232386,-1.222931389,-5.259886665,-0.143644584,-7.141008934,-2.625032968,-5.044439589,2.878682415,-1.745634352
-2.919787188,2.510606434,-0.336768516,15.4560449,-4.686212976,0.632991985,-3.553770485,-9.252178318,-15.95171242,-9.112695316,-8.479938344,-2.655773789,-6.429794565,-2.184545178,-10.35825387,-1.318671999,-6.175429973,3.887371231,-3.010786713
-5.395648988,1.362328293,-3.05725753,-1.392839079,-4.989022649,1.152623845,-2.649737659,-9.743113775,-15.25513014,-9.221211991,-6.443187251,-4.834089505,-7.137191783,-2.95538324,-11.71608376,-0.704561224,-7.00336299,3.007112729,-4.297620204
-6.53248146,-0.115201376,-6.298775139,-18.32754926,-4.154419787,1.302715737,-1.081695859,-9.001945449,-12.63805581,-7.633800937,-4.478710561,-6.936165752,-7.014821238,-2.166764216,-10.55926358,-1.22522092,-7.287344893,0.676515714,-4.951399777
-5.652899425,-0.83096154,-7.107768181,-23.77457049,-2.610990051,1.133172593,0.717255357,-7.10586964,-9.040776992,-4.755737232,-3.239402131,-7.91888408,-6.05588497,-0.246966612,-7.384461801,-2.474158286,-6.912646597,-1.607390143,-4.610298694
-3.196759605,-0.319778296,-4.453212715,-13.66485762,-1.124661379,0.826689136,2.132398835,-4.721036608,-6.010251662,-2.013688719,-2.903831437,-7.275826557,-4.709213135,1.817348108,-3.612294775,-3.504525973,-5.96770769,-2.277721559,-3.434245687
-0.352796206,0.965629554,-0.014259802,5.649406033,-0.287349231,0.531660606,2.645541887,-2.704061358,-4.533655594,-0.813733321,-3.082452641,-5.438461208,-3.667350308,3.084942018,-0.725324417,-3.43755919,-4.649232183,-0.68088473,-1.985811136
1.755465752,2.027595866,3.17771072,21.9782255,-0.170073301,0.22450723,2.089739418,-1.628667345,-4.35863567,-1.440554835,-3.089456186,-3.491912942,-3.442242745,3.265281024,0.612941076,-2.004608711,-3.145439908,2.52902797,-0.872851288
2.70128754,2.038745669,3.103598401,25.75893425,-0.376262359,-0.263425024,0.754904821,-1.505510034,-4.358160747,-2.800627893,-2.402690691,-2.416704374,-4.014560758,2.841120011,0.827517243,0.285215634,-1.654785693,5.746949184,-0.428977033
2.75977805,0.85823509,0.219829428,16.10124586,-0.43203054,-1.057964187,-0.719481036,-1.848266581,-3.616701364,-3.281904035,-0.99578778,-2.439773387,-4.825924277,2.603280948,0.935340651,2.431195764,-0.511517965,7.244478953,-0.644234009
2.373483364,-0.996063967,-3.094343938,0.334017387,-0.203298609,-2.042325719,-1.628578611,-2.037589519,-2.294125459,-2.09129342,0.67630986,-2.980542965,-5.147469778,2.97950119,1.703652804,3.490322967,-0.216720605,5.986725203,-1.335321682
1.601726519,-2.840842572,-4.561268021,-11.9420132,-0.020743182,-2.825716883,-1.535891653,-1.760003433,-1.507549951,0.008771206,1.999675971,-3.19782873,-4.577182544,3.712580662,3.100040147,3.046368986,-1.219158986,2.049203436,-2.360270636
0.059159052,-4.384258116,-3.809292481,-15.44207904,-0.424223872,-2.944891625,-0.493860827,-1.251397998,-2.321574454,1.208046058,2.576005333,-2.677776697,-3.314984316,4.144339043,4.383000421,1.321178406,-3.540890669,-3.493814807,-3.68506877
-2.600058724,-5.931905091,-2.532071664,-11.72787108,-1.726209844,-2.183234804,0.966104455,-1.184036826,-4.728830216,0.050022199,2.382259489,-1.723219357,-2.025528158,3.843280936,4.665608797,-1.096645949,-6.560946405,-9.080071698,-5.275042551
-6.091897534,-8.092399425,-2.968939427,-6.566614551,-3.719041458,-0.783643879,2.082162767,-2.243156827,-7.536658071,-3.367245755,1.638844065,-1.053247989,-1.39957298,3.023387604,3.475550098,-3.659406437,-9.217498455,-13.29155535,-6.95048353
-9.364882091,-11.1724628,-6.003976614,-4.89790199,-5.729118596,0.61785082,2.235490911,-4.628650895,-9.295458641,-7.349318513,0.541631404,-1.193476418,-1.731097587,2.390987952,0.948987063,-6.072066012,-10.56644448,-15.31968371,-8.367861146
-11.11110711,-14.65684573,-10.39203397,-7.439219869,-6.962015872,1.328469847,1.264651758,-7.779777036,-9.472303726,-9.757375867,-0.897250349,-2.049679237,-2.786721181,2.558971074,-2.333490695,-8.157472426,-10.31007985,-15.08397341,-9.160775821
-10.57624382,-17.14330299,-13.62833896,-11.04383754,-6.891635864,1.006370545,-0.440773629,-10.51401134,-8.816004761,-9.437336074,-2.766117937,-2.966858463,-4.006791096,3.542127224,-5.599123798,-9.545491209,-8.886603785,-13.009847,-9.127102137
-8.047567936,-16.87276845,-13.67600167,-11.79777291,-5.456592533,-0.121505845,-2.119542546,-11.54564948,-8.541354967,-6.820797635,-5.003224218,-3.175195765,-4.84448363,4.767998092,-8.016422391,-9.551559003,-7.044021334,-9.653102523,-8.314889862
-4.63291424,-12.66411553,-10.21122933,-8.058985813,-3.000529022,-1.379247844,-3.000775299,-10.12636328,-9.020331477,-3.313995159,-7.191980909,-2.253916867,-4.997647417,5.579427346,-8.765573807,-7.485529525,-5.244461664,-5.432971412,-6.958210152
-1.495909655,-4.779692852,-4.587775832,-1.277048416,-0.070966249,-2.030579873,-2.659138019,-6.45763793,-9.176178436,-0.096254131,-8.583636436,-0.297381218,-4.428542771,5.776049656,-7.245155332,-3.249545551,-3.390830425,-0.637067796,-5.341959629
0.865668395,4.824627692,1.21224674,5.488746861,2.763296235,-1.692548488,-1.175870151,-1.628833211,-7.23783617,2.621293438,-8.36856935,2.25035079,-3.251666991,5.720324182,-3.455498833,2.250195821,-1.095923945,4.362126842,-3.712406847
2.761746807,13.16532435,5.703312816,9.786758823,5.007545142,-0.516404761,0.973873292,2.909087587,-2.332504354,5.319868641,-6.053425682,4.883062605,-1.637110303,5.932927644,1.71187704,7.323022653,1.753826588,8.927407262,-2.275094147
4.810486845,17.60543859,8.346101212,11.07000869,6.294865186,0.965381327,3.23086104,6.05484444,4.424970464,8.275344902,-1.739190999,7.218370634,0.207409422,6.562008646,6.661738555,10.3527528,4.650310399,12.25150853,-1.220550106
7.244976588,17.2272529,9.295887439,10.537607,6.465535564,2.205704417,5.268474258,7.554156535,10.39208936,10.98294565,3.848184964,9.032746849,2.037417942,7.219756119,9.855563231,10.7707815,6.666247124,13.73804513,-0.696064375
9.605941206,13.3583107,8.968764975,10.11595238,5.659310221,2.9678577,7.125495095,8.000606678,13.21457419,12.50521012,9.602550089,10.25647027,3.64442884,7.342508417,10.73799529,9.433477912,7.074345964,13.40911881,-0.717497384
11.06071305,8.82987189,7.875746439,11.4517451,4.324009582,3.396713015,9.082575613,8.354955383,12.62231113,12.43100639,14.46543249,11.02875798,4.991805569,6.75116006,10.14896289,8.065798902,5.887980499,11.9990953,-1.106101882
11.06711376,6.339257128,6.692154533,15.3183391,3.061135107,3.811757965,11.37679961,9.297226668,10.72326883,11.49845032,17.86057483,11.76566899,6.29007035,5.89754101,9.810505834,8.119964876,3.884137958,10.60026988,-1.542047478
9.826557868,6.925987137,6.198959363,21.33866785,2.352032004,4.396454668,13.9571882,10.83054636,10.44602286,11.18484489,19.93006988,13.08680788,7.890926989,5.552535475,11.1520958,9.865504869,2.092162445,10.07204356,-1.732466757
8.158584502,9.556500594,6.899216207,27.90336886,2.329635435,5.026096445,16.45845133,12.38414219,13.27685958,12.50592859,21.42058536,15.5195029,10.02360564,6.184495909,14.29385899,12.37347687,1.157984082,10.62491254,-1.582403042
6.910809033,12.07819982,8.572952143,32.44864903,2.75942301,5.365351167,18.42061048,13.31834374,18.06950783,15.0503804,23.22050434,19.10731372,12.56016727,7.555427786,17.95670974,14.36893241,1.065521174,11.86266741,-1.237481732
6.390830688,12.83999993,10.26336602,32.32672024,3.248904282,5.158918616,19.60457695,13.44978395,21.91166593,17.16206175,25.75632616,23.20205294,15.01665885,8.88099241,20.39480741,15.24081903,1.371237171,13.2041244,-0.962083019
6.268357093,11.80082105,10.88484186,26.10445483,3.527960146,4.487618795,20.17175659,13.19696809,22.40717285,17.21703378,28.59722003,26.65254853,16.82863311,9.419304049,20.65689573,15.38415303,1.681919631,14.3123199,-0.945558424
5.990814868,10.34695865,10.05354831,14.59651066,3.583164273,3.781095974,20.57539134,13.22198192,19.57420565,14.95222646,30.5577312,28.34068401,17.70951205,8.99528862,19.21582105,15.61980219,1.946558214,15.18741037,-1.180301051
5.328568839,10.03072568,8.437649286,0.859292707,3.547111973,3.556104958,21.20942497,13.82582552,15.82268481,11.68386187,30.30941269,27.75332244,17.80814984,8.040814465,17.49579436,16.2318862,2.354554493,15.90386378,-1.489279371
4.571284211,11.2605803,7.254140999,-11.03703262,3.448919753,4.056660625,22.04551505,14.56336815,13.98091337,9.166052977,27.16772966,25.22757174,17.52448411,7.160824018,16.6957331,16.50986775,3.008579014,16.30167951,-1.661271673
4.207653948,12.97088243,7.263227784,-17.78970986,3.055435099,5.055437848,22.52630345,14.41096856,14.90710697,8.028436002,21.56043005,21.71466518,17.11783916,6.636676331,16.85684145,15.26503997,3.724314388,15.97479242,-1.583678443
4.372329018,13.48397181,8.088939617,-18.12070444,1.966897856,5.970202488,21.83220626,12.42338853,16.59597734,7.157403793,14.85931322,18.22363679,16.42627006,6.300500494,16.90848337,11.93765906,4.150543523,14.60330733,-1.29257948
4.557322235,11.81702033,8.466390366,-12.83519448,-0.077345299,6.228345294,19.38912291,8.439097891,15.56055644,4.633512142,8.674819704,15.30379415,14.94610317,5.853529767,15.62573932,7.343429719,4.073841851,12.32298976,-0.941368954
3.879810475,8.366266796,7.242316664,-3.907009315,-2.911649923,5.63547891,15.30256786,3.320397265,9.509462947,-0.492009049,4.074296783,12.87660022,12.24187857,5.292556305,12.70029677,3.338078473,3.594165267,9.753067263,-0.73839846
1.739451527,4.468650378,4.301234187,6.520375861,-5.912824468,4.498218656,10.42238276,-1.480162373,-0.682777662,-7.076678518,1.214142875,10.48526214,8.38747649,5.020680441,9.056120434,1.55544557,2.996098344,7.598896331,-0.885335078
-1.638954932,1.296374799,0.639120747,16.4430118,-8.282473531,3.420354552,5.963748904,-4.760193329,-11.21495899,-12.44753894,-0.44958589,7.767748022,4.096974058,5.522788758,6.175832295,2.181558792,2.452161974,6.149973245,-1.505673631
-5.218775247,-0.934769215,-2.466399171,23.62235604,-9.468456637,2.914081152,2.896440631,-6.246939754,-17.68411791,-14.30282997,-1.626040113,4.837972697,0.426299979,6.898142304,5.009094567,3.770518122,1.869021213,5.125257314,-2.554812692
-7.743153173,-2.802012048,-4.464333538,25.30922799,-9.444213885,3.087175002,1.474147494,-6.649715386,-17.86076964,-12.4771473,-2.761268267,2.333201974,-1.759055589,8.684050635,5.349343127,4.310309494,1.047104624,4.028059032,-3.758503507
-8.483315829,-4.798418925,-5.847246302,18.92418177,-8.663678095,3.604469259,1.195245417,-7.059205467,-12.9959204,-9.143289899,-3.962928324,1.091133397,-2.191622787,10.14738215,6.147885343,2.738742712,-0.000922745,2.70286804,-4.667007941
-7.604766427,-6.617044203,-7.521465105,3.778760029,-7.73781978,3.929801541,1.211083801,-8.129185983,-6.83968605,-7.243431634,-5.171706623,1.639352722,-1.231539193,10.7997104,6.450333924,-0.276893739,-0.917555553,1.568487872,-4.8627669
-5.912705943,-7.294891272,-9.808147471,-17.1665885,-7.066295088,3.671847919,0.907707222,-9.622677514,-3.163536601,-8.343144327,-6.286542975,3.801749659,0.454773536,10.69032588,6.145681914,-2.91007934,-1.24915323,1.265761648,-4.229630016
-4.214261932,-6.095652725,-11.97254603,-37.05164297,-6.671000296,2.806575059,0.27717325,-10.63017035,-3.524081171,-11.54903752,-7.092490479,6.684927552,2.304908841,10.23234027,5.911289727,-3.62869032,-0.899694646,1.999112747,-3.090996864
-2.809524229,-3.297867623,-12.70959989,-47.33322443,-6.317498739,1.652322781,-0.158216716,-10.27750498,-6.679345084,-14.27856609,-7.145805467,9.105317579,4.076544092,9.738539291,6.437844795,-2.358645975,-0.365549321,3.184852929,-2.068911783
-1.484476134,-0.110556221,-11.17549813,-41.90348375,-5.800253265,0.645669308,0.200975256,-8.396772994,-9.821391942,-14.2299705,-5.902855376,10.24340425,5.769845904,9.103553313,7.633617142,-0.432459249,-0.462017408,3.809862662,-1.709109054
0.051025801,2.26942454,-7.684815177,-20.99250515,-5.160248488,0.084924057,1.528402319,-5.681583924,-10.58145837,-11.02925445,-3.159611271,10.12514623,7.385137521,7.931315988,8.528549202,0.602555555,-1.686832587,3.288451681,-2.117833565
1.703521376,3.626479511,-3.493275364,7.70360038,-4.668146172,0.00227017,3.379148836,-3.23826192,-8.410992901,-6.37914631,0.520306744,9.583767118,8.74472717,5.995160601,8.015157907,0.313379322,-3.726122726,2.107225116,-2.887192777
2.942044283,4.808861572,0.123100649,31.98357228,-4.587097406,0.217478993,4.950869905,-1.876759941,-4.562612,-2.746585217,3.867216602,9.669302906,9.52559916,3.604220525,5.856784479,-0.251642844,-5.554378621,1.634339662,-3.391051735
3.219103972,6.783176366,2.701235543,41.08882378,-4.894490739,0.50282789,5.625568966,-1.642627626,-0.928449027,-1.689827119,5.619966323,10.87298643,9.472707542,1.519363967,3.137016333,0.547328157,-6.1196011,3.123645781,-3.248256389
2.512569579,9.479258689,4.669132669,31.41593654,-5.177814667,0.733108657,5.41865054,-1.879043326,1.309373175,-3.039035045,5.469625356,12.72587858,8.630948513,0.456044226,1.722035691,3.532050317,-5.110311917,6.643052222,-2.60396591
1.501840449,11.51772901,6.689545159,8.496802855,-4.805927591,0.929811391,5.017019233,-1.711301461,2.299860375,-5.334395383,4.465629984,14.11945639,7.428728688,0.579458061,3.049254157,7.925526818,-3.199251287,10.79757661,-2.00607916
1.170139296,11.19968984,8.914453999,-16.18516129,-3.292518193,1.194205204,5.361715886,-0.573361706,3.122144795,-6.949055845,4.406249258,14.17308836,6.546095917,1.410790684,7.074570477,11.81851633,-1.557423894,13.54029682,-1.96569567
2.097012467,8.014725376,10.81428094,-31.70697132,-0.635009838,1.595472758,7.037037803,1.565811176,4.778510683,-6.96810145,6.51803296,13.01101885,6.624336862,2.210158409,12.12605546,13.48836573,-1.013945945,13.51232837,-2.541862384
3.986458158,3.371656736,11.67853363,-33.44143925,2.585286562,2.095942045,9.860308587,4.337874256,7.337596261,-5.329334101,10.38812031,11.80070824,7.952769844,2.497012017,15.79973066,12.51861178,-1.519379868,10.92016782,-3.275554504
5.825304286,-0.190841895,11.27201856,-24.38578199,5.419604501,2.558436642,12.93739461,7.26058608,9.806414959,-2.448393712,14.04600269,11.92453979,10.28082618,2.271185678,16.33960452,9.884401744,-2.315420799,7.309284637,-3.524200434
6.587026999,-0.810583546,10.02665729,-11.5401071,6.977081185,2.824156956,15.14821596,9.90955173,10.79428422,1.113714339,15.25631276,13.85327384,12.8592018,1.788732194,13.64125992,7.04001911,-2.634442559,4.447499067,-2.935607806
5.962233584,1.278999071,8.619836341,-0.342459898,6.829744939,2.808799667,15.75522586,11.89338443,9.5160794,4.648668318,13.1066592,16.606686,14.72520023,1.157781869,9.278748749,4.827340113,-2.33220571,3.196125,-1.699052445
4.557975142,3.887561185,7.374206402,8.512743796,5.182025633,2.557581227,14.76122794,12.77408424,6.46011207,7.176401883,8.6677589,18.31186051,15.13012428,0.175458199,5.570998233,3.0866038,-1.940729271,3.191724834,-0.396337226
3.40667371,4.515947868,6.062784956,17.58515438,2.727739643,2.224360145,12.81504001,12.1305699,3.234447002,7.605539871,4.178579051,17.5309756,13.90423241,-1.415414939,4.269407269,1.189713403,-2.132667657,3.460774721,0.411115774
3.156911536,2.247715931,4.291417515,28.13986282,0.292649938,1.982204557,10.75246973,9.802017399,1.604923861,5.279019842,1.367562808,14.37136585,11.54044037,-3.490196013,5.633384939,-1.074898626,-3.08021293,3.345795059,0.535182317
3.567340754,-1.59154245,2.061362226,36.79510639,-1.532835412,1.913605955,9.076861351,6.1241801,2.273749021,0.52203978,0.224975259,10.47420339,8.904095586,-5.374618094,8.394417627,-3.092348803,-4.260454104,2.945661715,0.205831975
3.694257593,-4.504755208,-0.066143375,36.73801673,-2.586183565,1.947741613,7.698412348,1.905681773,4.19129284,-5.339695722,-0.809739484,7.805898337,6.705216655,-6.183782322,10.57945841,-3.852848095,-4.863181653,2.771967182,-0.182743743
2.631185519,-4.755414186,-1.399739897,23.01996109,-3.087425915,1.894189786,6.071429179,-1.932581286,4.94697921,-10.64752505,-3.42575695,7.133723818,5.060154079,-5.45128673,10.6807259,-2.843612475,-4.445905863,3.031374286,-0.39503327
0.23854557,-2.64707748,-1.754820274,-2.278322295,-3.430580843,1.568270502,3.619707616,-4.847150534,2.136504443,-14.33678666,-7.966103412,7.38220739,3.461163843,-3.534187032,8.482747933,-0.62786709,-3.287048162,3.243281485,-0.500140105
-2.684455514,-0.208092256,-1.681355789,-29.59456491,-3.954856946,0.938808966,0.177064965,-6.935718376,-5.066991972,-16.44034658,-13.10813188,6.438000688,1.221160015,-1.420177144,5.077849739,1.390121894,-2.159848131,2.559004551,-0.766464318
-4.905066276,0.378852972,-2.022957372,-47.19105111,-4.809969168,0.197671959,-3.820435856,-8.756323782,-15.13873755,-17.80420019,-16.93140027,2.848739262,-1.887766312,-0.044805351,2.094746358,1.840522208,-1.737371692,0.496968873,-1.427507989
-5.554966795,-1.670343916,-3.169495284,-48.56412515,-5.944197974,-0.315718948,-7.495012455,-10.81577707,-24.79592672,-19.2757142,-18.44711807,-2.876265881,-5.272058113,0.354511084,0.649679999,0.231660689,-2.125222985,-2.565033027,-2.50605447
-4.642483991,-5.345922981,-4.674562204,-36.35148517,-7.170484183,-0.311021497,-9.940609816,-13.10659782,-30.67183558,-21.01715541,-18.29790091,-8.399594082,-7.751882165,0.329551853,0.707363363,-2.840444525,-2.876999495,-5.57704161,-3.79518309
-2.945593514,-8.741973594,-5.603540857,-19.71897579,-8.248259096,0.251620479,-10.65559018,-15.04745431,-31.06540469,-22.43508446,-18.06525783,-11.07759921,-8.294624797,0.683920231,1.274330229,-6.184036288,-3.423965052,-7.52030161,-4.960196711
-1.422586653,-10.38983775,-5.321881021,-7.353981157,-8.947782315,1.09658827,-9.761839244,-15.87448897,-26.69840027,-22.6769904,-18.81470759,-9.752909422,-6.750043947,1.750030192,1.282271085,-8.745472518,-3.518256713,-8.027719372,-5.666110482
-0.602163389,-9.982822124,-4.023559664,-1.668090765,-9.097672417,1.770817641,-7.901380665,-15.18059181,-20.07106065,-21.22291178,-20.14332665,-5.484906906,-4.032170657,3.078887235,0.52095215,-10.02730998,-3.320137328,-7.426008623,-5.674118168
-0.36577425,-8.116851418,-2.521599739,1.324054421,-8.623542851,1.916439849,-5.877075168,-13.18912487,-13.92789366,-18.13745076,-20.5373415,-0.702255346,-1.55817961,3.801619944,-0.086849633,-9.98891118,-3.101118772,-6.232593409,-4.91185025
-0.192614318,-5.529169171,-1.488322006,6.818030169,-7.570603066,1.505888652,-4.239022124,-10.56870758,-9.870749903,-13.94063567,-18.70674551,2.534399513,-0.300410981,3.366263959,0.87636045,-8.686968941,-2.873739878,-4.609433379,-3.527190402
0.401009779,-2.613171629,-0.842128673,15.5415043,-6.093462827,0.875907418,-3.043362468,-7.966164535,-7.929416047,-9.380560308,-14.7310858,3.828145382,-0.12600017,2.041384048,4.195092746,-6.080077875,-2.305686036,-2.275076071,-1.888803321
1.574559141,0.453843964,0.141288214,22.65814468,-4.409361125,0.523959361,-1.910665071,-5.649686957,-7.136764818,-5.336529685,-10.03680163,4.376487844,0.075222244,0.766051388,9.236382749,-2.191588064,-1.008270261,1.070830118,-0.476649628
3.17727955,3.311726811,2.070105807,22.17582291,-2.734591832,0.793818112,-0.337922896,-3.536246127,-6.465658009,-2.7587161,-6.251114865,5.718726248,1.539231037,0.455958066,14.14314132,2.557858017,1.046901422,5.230673841,0.330328451
4.946307432,5.336561802,4.713312808,12.84188517,-1.231990112,1.659880505,1.932065485,-1.528802407,-5.379670393,-2.368356391,-3.937845149,8.386028924,4.662598366,1.312517769,16.94111032,7.22289642,3.345492437,9.396740416,0.455219307
6.667710673,6.074461012,7.000779829,0.124269813,0.018661025,2.756760347,4.715124058,0.189649937,-3.739710663,-4.074671896,-2.288741026,11.53615654,8.639823205,2.674664308,16.80140023,10.62557284,5.055225131,12.568973,0.159468689
8.191164375,5.775381682,7.81279269,-7.698027836,1.034960417,3.631326655,7.484959546,1.220446075,-1.421675406,-6.528410774,0.013699279,13.78858564,11.98766691,3.518893642,14.54910238,11.92963199,5.508496311,14.15834664,-0.141913219
9.371057969,5.411361338,6.919415843,-6.071803561,1.934999596,4.03868321,9.695057393,1.35493918,1.800003938,-7.420612837,3.556574066,14.48414031,13.58230896,3.210877142,12.04286957,11.11608527,4.604180975,14.28565631,-0.168586281
10.0702713,6.001555033,5.265607748,2.335819449,2.908513028,4.075523967,11.099804,0.959011735,5.90370581,-4.711405436,7.654932195,14.28247773,13.44472137,1.939253062,10.88275312,9.02972256,2.867375792,13.57296577,0.051647663
10.25782624,7.747064149,4.330140449,10.23966335,4.125634253,4.065332679,11.85016117,0.92596084,10.15891002,1.834928008,10.91794641,14.60177519,12.68909982,0.534879335,11.39746407,6.950839911,1.15894081,12.66143753,0.262977124
10.08552452,9.747353723,5.058106273,12.12324549,5.591836461,4.290775076,12.298098,2.10983351,13.1199323,9.94245188,12.34780204,16.3789273,12.67007041,-0.144440151,12.63030301,5.942599654,0.244143328,11.87535904,0.244458864
9.810785653,10.63105588,7.212298774,8.748614705,7.029869071,4.775282322,12.65679234,4.60174317,13.30087461,15.72662102,11.97780679,19.17968268,13.96055384,0.214737306,13.26375865,6.339070079,0.466759659,11.24495787,0.023027367
9.579631819,9.643658018,9.619916009,5.82474206,7.906876872,5.270631591,12.77573829,7.416960119,10.14163715,15.89082345,10.55165483,21.38860941,15.91414455,1.243375267,12.70922544,7.634898468,1.654365357,10.7316418,-0.157446021
9.254797624,7.296202969,11.04439387,8.142383955,7.663589959,5.447939351,12.2116419,8.921673147,4.534096606,9.846892986,8.663752929,21.33513815,17.12467194,2.210342708,11.50149543,8.813164643,3.234896801,10.33771175,-0.086096449
8.484729256,5.008450591,10.94025006,14.60950514,6.055637899,5.139037846,10.55691507,7.796690862,-1.560449254,0.261386366,6.256851074,18.48532458,16.42935774,2.50119113,10.73441947,8.932537798,4.478031802,9.975006353,0.181124292
7.01662729,4.01743955,9.538292474,18.84134701,3.389986176,4.446797355,7.788413984,3.909815951,-6.195083518,-8.462701238,2.971568844,13.81254782,13.71410159,1.909787418,11.0605529,7.672938361,4.782429446,9.29856404,0.343393797
5.018432921,4.44825626,7.34865703,14.90585217,0.455412243,3.652899811,4.373763674,-1.512838412,-8.47535655,-12.80761162,-1.043368568,9.122053232,9.952906645,0.617094286,12.11251307,5.547603241,3.939201648,7.820190459,0.149282333
3.11649422,5.310131259,4.661771544,3.038946119,-1.866947195,3.009284006,1.047360579,-6.556802509,-8.847018832,-12.10386957,-4.763650425,5.885725968,6.500103838,-1.008485722,12.82349622,3.638560559,2.277039334,5.356398404,-0.283112109
2.060162474,5.398199124,1.538779534,-9.981166251,-3.086176783,2.581082658,-1.585772046,-9.688935844,-8.513065749,-8.551797935,-6.888259381,4.441616492,4.198369136,-2.574331387,12.35645598,2.967358065,0.582843818,2.466946445,-0.428857541
2.237381871,4.324454072,-1.768093131,-16.34851904,-3.346278758,2.255152012,-3.331707621,-10.51932433,-8.500899708,-5.423835462,-6.978069503,4.053723946,2.960959748,-3.703828705,10.839567,3.857921563,-0.233766932,0.409609662,0.305465498
3.415908839,2.818633271,-4.492680314,-13.78208185,-3.243594819,1.889005375,-4.379722442,-9.78804497,-9.086030149,-4.83303679,-6.07699334,3.656160957,2.083685918,-4.042092491,9.274024326,5.712065231,0.39378539,0.46388411,2.100495099
4.924739505,2.087143609,-5.585976332,-7.185227642,-3.334795474,1.465218419,-5.011970655,-8.667146209,-9.899067883,-6.636430664,-6.091385165,2.658501443,0.972648976,-3.353104165,8.682811121,7.394569266,2.3499407,3.025188176,4.487867512
6.137348735,2.820000897,-4.409936983,-3.839670235,-3.69716486,1.12215408,-5.30161315,-7.926962011,-10.46175671,-9.070165855,-8.276598756,1.257690681,-0.319124898,-1.702236789,9.214582193,8.007156083,4.855566289,7.160631434,6.582420066
6.86836435,4.698263398,-1.302043233,-6.50096942,-3.880667138,1.041996981,-5.053116129,-7.551465158,-10.61546237,-10.39897794,-12.05770566,0.147584822,-1.160005371,0.439123629,9.964215467,7.507779842,6.868981578,11.04744711,7.64142104
7.369095721,6.7729664,2.540181704,-10.83420079,-3.299157467,1.296259998,-4.036079328,-7.004730853,-10.52020332,-10.22337827,-15.26577062,-0.052613394,-0.923284307,2.335751171,9.68073229,6.689419567,7.638475525,13.05763412,7.541518201
7.951372001,8.310619817,5.828114523,-9.766721617,-1.762657506,1.77888471,-2.316486638,-5.860418603,-10.36003596,-9.537188107,-15.74347602,0.782648184,0.410929983,3.364085842,7.795901657,6.494555634,7.063319993,12.73295682,6.818174229
8.591352034,9.320527255,7.981814759,-0.893019206,0.271742807,2.277682169,-0.395712309,-4.273156873,-10.14402583,-9.697786952,-13.08998838,2.244931034,2.130035035,3.385894503,4.934879178,7.184736205,5.648373736,10.95252101,6.248628127
8.883245999,10.31320849,9.284214307,10.06494447,1.946300609,2.617935026,0.992887482,-2.93958411,-9.821071919,-11.26282728,-9.106400667,3.659270802,3.242592048,2.830098667,2.487605322,8.057277066,4.116870708,9.201308212,6.3046824
8.403531843,11.56326809,10.28063395,13.46726161,2.578202756,2.757795455,1.313040496,-2.605450213,-9.533649841,-13.58852708,-6.503420509,4.431380151,3.156221704,2.381939919,1.580301411,8.002868526,2.968202677,8.518143525,6.879381466
7.172519635,12.60427944,11.00550994,4.377632489,2.135665339,2.766679581,0.577520993,-3.504134433,-9.638411529,-15.3521729,-6.843660629,4.282995827,2.05983765,2.4790119,2.265464615,6.499871578,2.270930602,8.900902532,7.452445785
5.789434738,12.46622958,10.7963331,-12.08681276,1.256917626,2.725664495,-0.637898308,-5.134770707,-10.34401593,-15.44367694,-9.339687926,3.309296782,0.734579826,2.983206304,3.559994937,4.214717554,1.779298539,9.536623102,7.513989363
5.076418457,10.48461401,8.928455784,-23.97470411,0.801564153,2.655550369,-1.539662704,-6.524175334,-11.25867577,-13.53492297,-11.46394463,1.886371513,-0.036642688,3.285435821,4.269424886,2.627651492,1.223715554,9.56634503,6.89824816
5.483753457,6.980815111,5.524242961,-22.15332605,1.272182468,2.544187421,-1.586658382,-6.783946001,-11.35423483,-10.06994702,-10.88927337,0.48942997,0.001388672,2.778318118,3.912395783,2.88710811,0.532831671,8.730474992,5.804777682
6.728967143,3.205340171,1.864764369,-8.260897599,2.522743993,2.44090687,-0.771634543,-5.605011664,-9.57238604,-5.929831546,-7.247188654,-0.505229478,0.491553683,1.346553703,3.005666901,4.787797638,-0.154882291,7.432361505,4.567080379
7.972692275,0.559452296,-0.307641286,6.210713089,3.930517062,2.507924692,0.45110761,-3.409634918,-5.716804104,-2.14610493,-2.387837389,-0.947348607,0.840320676,-0.498808461,2.512895933,6.756453845,-0.646667753,6.288962386,3.414488103
8.408967966,-0.28754396,-0.028721138,9.419666387,4.854391805,2.942892395,1.500590972,-1.111782414,-0.910244986,0.248977725,0.957248827,-0.900361726,0.715168294,-1.953032358,2.943493948,6.958686439,-0.861596731,5.632006623,2.419455204
7.817483286,0.293843541,2.106039056,-0.621520048,5.017435284,3.801358116,2.007486028,0.347451037,2.870885639,0.440812101,1.000193724,-0.505267853,0.259122903,-2.477102048,3.855931444,4.708414727,-0.882549313,5.371338279,1.610935757
6.660549875,1.333148377,4.308065928,-14.01718859,4.562593831,4.857541131,1.933741372,0.437546435,3.967965539,-1.741189548,-2.139684509,0.158371292,-0.122768873,-2.172018111,4.171561834,1.053169834,-0.88805763,5.241084663,1.078494635
5.673648919,2.010561484,4.877839227,-17.23013512,3.817892486,5.646032243,1.446981898,-0.748684268,2.095736257,-5.423129618,-6.855256761,1.074837671,-0.189025201,-1.692722274,3.041984057,-1.972114015,-1.046529101,5.108715042,0.931438115
5.290892015,2.09523973,3.406335775,-4.819320333,3.021170322,5.706743001,0.713646462,-2.576830912,-1.511284355,-8.793410577,-11.26261457,2.143550345,-0.113815025,-1.764987677,0.576972173,-2.857069427,-1.448878152,5.036172217,1.155334327
5.351558919,1.808279343,0.95513714,15.34323255,2.231634398,4.895223052,-0.187448253,-4.184108721,-4.971403786,-9.950852195,-14.15313227,3.044879249,-0.332753868,-2.653872645,-2.132213679,-1.688821164,-2.089078444,5.086973911,1.536398122
5.285152515,1.386341793,-0.884951661,28.02429148,1.448532208,3.545560702,-1.16295289,-4.868635425,-6.96391192,-8.095980246,-15.11397126,3.336776123,-1.095254695,-3.956930414,-3.695692358,0.067461525,-2.85867961,5.146037095,1.769883112
4.592003696,0.840229795,-1.240513034,22.90834337,0.76790419,2.350430147,-1.932809351,-4.371748639,-7.350437822,-4.204244648,-14.10480706,2.816565981,-2.094739836,-4.852911973,-3.282267055,0.86271957,-3.542091779,4.988817815,1.683560027
3.233292451,0.128128876,-0.476249937,2.923942754,0.399753247,2.005755691,-1.990235815,-2.923298758,-6.811635365,-0.533595317,-11.19227084,1.887117909,-2.511501003,-4.616224199,-1.030237869,0.321991491,-3.84627556,4.547599263,1.376055587
1.656726073,-0.507223649,0.380399416,-18.30442603,0.525579377,2.82825429,-0.804727089,-1.044076347,-5.944221446,0.840514899,-6.778860031,1.538678331,-1.495815601,-3.042076435,2.21874568,-0.592015306,-3.501859856,4.081308156,1.12939429
0.485141203,-0.483724105,0.724746547,-27.52594012,1.137679525,4.579006457,1.820973167,0.762006598,-4.695027846,-0.551422469,-1.95842584,2.78812938,1.225370457,-0.520337507,5.568134559,-0.602707055,-2.411538665,4.020458248,1.15908816
0.12694402,0.72125498,0.963370636,-21.94564634,2.016310441,6.59827196,5.484517821,2.230548309,-2.648548291,-3.281942525,1.658117538,5.886300621,5.054466557,2.24342778,8.565260603,0.624748662,-0.7513853,4.582048292,1.422731338
0.567621244,3.029163745,2.071627529,-9.949012981,2.86678439,8.164832526,9.238455649,3.349411492,0.151320873,-5.137512375,2.840632753,9.919895062,8.779529741,4.633949947,11.22456373,2.160528064,1.069650303,5.513280642,1.664031534
1.421435652,5.602400521,4.529615993,-2.433239816,3.492900805,8.864120651,12.00531455,4.202532066,2.721454837,-4.79545597,1.759888088,13.25426814,11.2417669,6.391583531,13.68367593,2.748551391,2.597165986,6.248558269,1.655317267
2.144496799,7.311702378,7.625693287,-2.852857883,3.863616457,8.759298905,13.14635285,4.818578956,3.622860412,-2.752035921,0.189774653,14.63334225,11.98798512,7.612057312,15.88262545,2.169683122,3.557936541,6.391344849,1.413829575
2.266979425,7.517972766,9.816921905,-4.894628917,4.044390499,8.288799848,12.84128841,5.178807364,2.143558818,-0.771924646,0.480799592,14.14826283,11.48448035,8.550958457,17.56644491,1.735935443,3.979212643,6.101628773,1.185266872
1.570163579,6.538045896,9.911354039,0.423245476,4.091553257,7.972845483,12.01471521,5.368899953,-0.824473449,-0.334936258,3.908527353,13.25311081,10.7572049,9.404765535,18.56311269,3.321767503,4.12737893,6.008870787,1.203650549
0.1941952,5.386821734,8.091994215,15.03181446,4.021897417,8.106637352,11.80614286,5.685322458,-3.113717438,-1.390458316,9.626132608,13.67576368,10.69830482,10.19949161,19.01133015,7.634028494,4.319596258,6.675990599,1.453049183
-1.353540196,4.982472526,5.89123913,30.63621678,3.866078189,8.607450519,12.87127559,6.50348367,-2.764399626,-2.477488578,15.09118896,15.97573194,11.49048508,10.80337664,19.25771078,13.1924123,4.739530769,8.058178746,1.667507993
-2.355397166,5.455424397,5.083567298,35.27435674,3.71078228,9.087948912,14.93672181,7.923949064,0.417869745,-2.112118911,17.72575388,18.89510938,12.51427722,11.00029514,19.46801752,17.02045247,5.360581574,9.440305853,1.589159403
-2.220854798,6.115297638,6.365077943,23.88466674,3.646998775,9.106080147,16.90691185,9.473014326,4.516411484,-0.244779847,16.59849134,20.13099927,12.784249,10.56706441,19.30648406,16.66684327,5.98526442,9.936746992,1.253621041
-0.86722963,6.072403232,8.866802493,3.353527405,3.661079339,8.451410861,17.49555292,10.1955073,6.777640393,1.510471091,12.89108189,18.05777128,11.62088507,9.351045883,18.04040091,12.02710675,6.337575542,9.141040552,1.022709047
1.117156857,4.963830532,10.85911491,-12.70241384,3.600651747,7.307008661,16.01705957,9.223944045,5.609672306,1.153837785,8.858631841,13.10542803,9.122377476,7.366322995,15.0932367,5.506885899,6.150345763,7.369973764,1.297866844
2.721629807,3.170038618,11.03800074,-15.02781682,3.299078033,6.185627437,12.84549561,6.494847512,1.755185535,-1.938807813,6.146117995,7.665567528,6.139183974,4.88492581,10.66388361,0.347646885,5.24229448,5.302065962,2.142574438
3.094473846,1.373392158,9.353040975,-6.002130616,2.775115053,5.658082438,9.233070189,3.051143768,-2.323397639,-6.27501048,4.759537674,4.493027751,3.777743226,2.442034669,5.899252377,-1.60860418,3.604605709,3.355930918,3.150525995
2.089773542,-0.109509832,6.780975508,3.263626475,2.303136397,6.016615893,6.581038395,0.571225823,-4.395859127,-9.241677664,3.399254666,4.764993311,2.757917251,0.681552882,2.391584552,-1.003896513,1.477897841,1.393911476,3.705768092
0.370305149,-1.602862906,4.357838026,3.322587339,2.222875012,7.074966103,5.62015076,0.320261665,-4.198869632,-9.115247947,0.769455424,7.282176249,3.032355558,0.068601868,1.274879951,-0.128694502,-0.65656348,-0.962908775,3.444434148
-1.050276244,-3.697630032,2.369408423,-5.081984834,2.597842895,8.248308714,6.034425123,2.225198523,-3.532565248,-6.464411869,-3.227189883,9.445140892,3.896107762,0.621393252,2.529768366,-0.931821362,-2.238862163,-3.704835742,2.538115439
-1.513179799,-6.557485874,0.383141461,-12.02819274,3.027904351,8.893639823,6.778546474,4.800761351,-4.606860798,-3.744307496,-7.303292251,9.258564725,4.492651291,1.852659916,4.998198218,-3.507041971,-2.909729567,-6.119755427,1.551756419
-1.138817007,-9.527446569,-1.988662543,-8.033667034,2.861360953,8.715000451,6.87102108,6.10182982,-7.969034779,-3.322413822,-9.648771504,6.807248658,4.370647921,3.001016483,7.119103424,-6.202449726,-2.746391348,-7.182535173,0.981498741
-0.642746755,-11.41891648,-4.360652999,6.471589502,1.733017828,7.969622675,6.111678034,5.11135072,-11.73589296,-5.479900769,-9.10514688,4.07236679,3.729040366,3.436352207,7.88307198,-7.119256275,-2.269334795,-6.399323334,0.85133121
-0.699740707,-11.27716071,-5.597742659,20.56722725,0.026019056,7.3175424,5.216704448,2.574813522,-12.83988608,-8.019386213,-5.799896966,3.283316783,3.213245572,2.987187914,7.353563711,-5.670138878,-2.165047143,-4.391523802,0.70446145
-1.384528411,-9.041566558,-4.617045463,22.00084474,-1.176925616,7.387689891,5.271386503,0.613957202,-9.373394922,-7.873572953,-0.915635909,5.159103156,3.434442887,1.978039758,6.428602696,-2.940262103,-2.877006711,-2.649157388,-0.001711232
-2.155323105,-5.610652761,-1.289653291,8.124856922,-0.736374519,8.337009772,6.890050895,1.309724251,-2.193127755,-3.518601986,4.076155676,8.445766061,4.562150512,0.964766034,6.072636601,-0.69706895,-4.337258366,-2.55703019,-1.422812544
-2.38400374,-2.310116295,3.337352001,-11.14880766,1.711869694,9.705088119,9.691917196,5.219664261,5.509604334,3.677223462,8.122313202,11.0704938,6.265660196,0.368514335,6.613760884,-0.027554484,-6.031173184,-4.435231252,-3.162397448
-1.959163188,-0.202788349,7.697049234,-21.2369678,5.363493653,10.67996464,12.48349659,10.89267724,10.37834179,10.24654628,10.86731312,11.9091807,8.012353162,0.269438435,7.608202387,-0.778425295,-7.352475527,-7.371196302,-4.538925055
-1.411696304,0.284234982,10.69327925,-14.92501964,8.652230604,10.61092398,14.03234044,15.75759527,11.14547762,12.99535208,12.53707412,11.68983163,9.470124832,0.482183656,8.309837835,-2.135541552,-7.991720627,-9.988043827,-5.05422566
-1.421896201,-0.711426362,12.22765698,1.867956834,10.22883768,9.428099829,13.8882407,17.77867695,9.272485939,11.19033876,13.66485286,12.30403017,10.69979343,0.808946807,8.318852431,-3.616882014,-8.079218701,-11.51004674,-4.684106525
-2.123505603,-2.74784355,12.90372869,15.58241471,9.827497287,7.687403156,12.67002782,16.71675871,7.572640661,6.959665402,14.81971219,15.13154102,12.00229088,1.236216833,7.880293152,-5.437699129,-7.993864641,-12.2230904,-3.783919305
-2.838178535,-5.206675681,13.27362107,16.89835321,8.386060465,6.215443982,11.61730635,14.12504182,7.98596447,3.676501738,16.34751427,19.78671239,13.56193148,1.910961631,7.625204893,-7.894128384,-8.003404387,-12.93376475,-2.733023178
-2.539974361,-7.237827526,13.35571043,8.556404993,7.331259854,5.600389531,11.72756796,12.12838869,10.26494022,3.58666643,18.13410939,24.3170416,15.18475044,2.936580085,8.017406384,-10.43361595,-8.020879599,-13.89866815,-1.643495752
-0.723607534,-7.775701624,12.84307618,2.305313161,7.563219651,5.867785393,13.08172542,11.90060858,12.4974857,6.417039308,19.53227509,26.6653862,16.34876269,4.190409404,8.997221162,-11.46573502,-7.659356047,-14.19231149,-0.368653014
2.038096246,-5.888188643,11.73785593,7.787299295,8.887457014,6.535128923,14.80891637,12.93146898,12.86997682,9.859298641,19.63261826,26.17857035,16.53059142,5.343155069,10.11588324,-9.330204649,-6.53317134,-12.16551077,1.2357546
4.360423804,-1.387973558,10.71781067,23.29084871,10.28087014,6.97063796,15.68025988,13.55506963,11.12524305,11.38804069,17.84896314,23.95182143,15.55417308,6.075816397,11.00622877,-3.737553959,-4.575897564,-6.749516478,3.061719122
4.995669459,4.729032768,10.76875813,36.63691824,10.73248112,6.788821834,14.89465516,12.27807926,8.546180136,9.969151108,14.4631026,21.79998313,13.69580974,6.305365199,11.72681557,3.563204889,-2.151652232,1.386827806,4.741447746
3.748109768,10.47847972,12.30854313,35.50994801,9.981922963,6.027909206,12.52659308,8.896694157,6.619370901,6.471929253,10.66230733,20.775563,11.47913724,6.213259497,12.62483401,9.606724515,0.098702522,9.793002938,5.877650549
1.627713922,13.77083398,14.56552416,18.20979385,8.60630192,5.04038328,9.384887792,4.606955769,5.652228422,2.701815611,7.90352721,20.46809512,9.336587774,6.042627463,13.80964117,12.03213215,1.554661813,15.46640988,6.293688871
0.099193046,13.50101091,15.85458413,-4.586826398,7.452394156,4.231666632,6.451593721,1.093338574,4.590893063,-0.011336101,6.971805079,19.59445466,7.40318166,5.843222648,14.73069702,10.55074607,1.871061397,16.55668241,6.084775111
-0.001989514,10.13868794,14.67939153,-18.605902,6.922469002,3.852691819,4.323457918,-0.678100489,2.174688743,-1.564529111,7.418943472,17.28173906,5.579491997,5.406034284,14.33939513,6.945950896,1.0771413,13.38034656,5.450477332
0.950917085,5.415813804,10.8699572,-17.67533792,6.69608283,3.959497188,3.009291773,-1.069910728,-1.645643645,-2.760809258,7.848785626,13.90308342,3.771503268,4.474402485,11.84884547,3.64352077,-0.475671253,8.083837846,4.493086475
1.737587027,1.323117088,5.857609706,-8.26126526,6.076913827,4.497172728,2.139362833,-1.384867616,-5.349618235,-4.399177727,6.882712262,10.78037361,2.081499365,3.069427786,7.549849567,2.000816957,-2.247506554,3.258959947,3.185285389
1.286868017,-0.913946839,1.814476919,-3.07800575,4.638680831,5.381727757,1.35950724,-2.821855144,-6.950045483,-6.619393258,4.099731365,9.079520969,0.790929081,1.640182869,2.975006058,1.618408379,-3.667859089,0.504478355,1.532946946
-0.484865293,-1.25043025,0.252720359,-9.496735359,2.627150034,6.498171616,0.606894503,-5.564258904,-5.665876217,-8.967121903,0.261242329,8.899990083,0.171468145,0.866716379,0.123704202,1.084242392,-4.295552062,-0.145879587,-0.241743064
-2.633178652,-0.482042248,1.095546737,-22.86161005,0.807039915,7.646117986,0.108919974,-8.641570575,-2.733468755,-10.95110147,-3.297057244,9.33475218,0.305276963,1.223505352,0.188148863,-0.601207817,-3.958888259,0.277910104,-1.702981271
-3.933129179,0.467185884,2.868267793,-30.41491679,-0.096501987,8.532499171,0.166156512,-10.61786144,-0.615001334,-12.4838747,-5.572485662,9.386852475,1.065707185,2.625051307,2.686126342,-3.136188502,-2.821988463,0.699845625,-2.426830588
-3.793937541,1.072539105,3.8122639,-22.33542363,0.093421945,8.871870034,0.90770712,-10.5829752,-1.201664234,-13.81140661,-6.386076187,8.879293719,2.245276467,4.438684117,5.700247308,-5.222856468,-1.317673942,0.723645688,-2.274401209
-2.629736616,1.259270502,3.0680669,-0.428392645,0.925852004,8.547781746,2.179936924,-8.752427699,-4.456308461,-15.07686958,-6.163537351,8.538677791,3.680804843,5.878827832,7.145328161,-5.683575988,0.05089383,0.631466684,-1.481193379
-1.448621926,1.118197259,1.098401436,22.74146649,1.690603381,7.714564072,3.608975196,-6.297571749,-8.572903502,-16.00557401,-5.345957751,9.205032543,5.247185872,6.503285315,6.202859343,-4.38731949,0.941992073,0.846652035,-0.484797333
-1.047738364,0.659248191,-0.840139438,33.25587253,1.920370605,6.747313335,4.7703949,-4.568610909,-11.46257666,-16.04756653,-4.043298723,10.91550269,6.746907504,6.451124251,3.885538129,-2.260071541,1.300336065,1.420739278,0.362687375
-1.472163057,-0.155253939,-1.657547991,25.81937624,1.655875153,6.057167208,5.365927588,-4.257857341,-12.28868841,-14.8511363,-2.22998327,12.71962222,7.853903018,6.25986995,2.296297196,-0.49472736,1.301108146,1.977568112,0.960741522
-2.121958207,-1.184628993,-1.07133091,6.451993676,1.328653929,5.88788547,5.33281087,-5.043911782,-11.78736965,-12.61889925,-0.198085004,13.42130111,8.236438555,6.419134972,3.09808914,0.290187575,1.171972025,2.100109057,1.391297395
-2.33843919,-1.987381936,0.455095552,-13.35857815,1.40818312,6.218807394,4.851403913,-5.904221377,-11.19935762,-10.01490453,1.302988576,12.60607072,7.801670885,7.006138259,6.299027596,0.279389084,1.040749981,1.775069289,1.719435486
-1.937167888,-2.004275728,2.254919045,-25.29646345,2.091355645,6.816975062,4.249048318,-5.843564109,-10.85641917,-7.719535234,1.513186264,11.04596786,6.845233341,7.664155119,10.22956357,0.04676988,0.919173052,1.49496339,1.8786966
-1.259645895,-0.951102947,3.932155266,-28.45254268,3.221301614,7.379749216,3.832125813,-4.54391188,-9.757253193,-6.053214845,0.354523554,10.11014413,5.922369449,7.907386711,12.70928479,0.013577849,0.799999441,1.922193946,1.755945623
-0.76138222,0.898341583,5.397017109,-26.74731579,4.428280379,7.667746118,3.719317064,-2.529075962,-6.578737712,-5.002248425,-1.308568811,10.6695424,5.483146861,7.492814017,12.53326145,0.274567677,0.738107212,3.37183757,1.379274399
-0.543873723,2.803780701,6.560292229,-23.34442117,5.353395565,7.56611749,3.770851377,-0.7738829,-1.263626321,-4.568085591,-2.21837681,12.41371431,5.543903948,6.576950406,10.2026449,0.807049826,0.80953029,5.501182929,0.994953337
-0.252498975,3.999111908,7.102408883,-17.85126331,5.816148676,7.081720398,3.672473424,-0.046696104,4.262983026,-5.023680416,-1.739885576,14.13150868,5.681097627,5.570391439,7.420648933,1.670314087,0.978967518,7.436548421,0.915578875
0.582224277,4.175359611,6.627606055,-8.525514535,5.866687106,6.319498591,3.138474328,-0.430568547,7.038443343,-6.732759733,-0.500396697,14.68105442,5.387952105,4.84082937,5.800942201,2.882332731,1.025432325,8.264815763,1.24838462
2.072210794,3.657114409,5.103380424,3.590811877,5.733071084,5.461760798,2.106227698,-1.330820501,5.083029531,-9.622584649,-0.019992118,13.8153465,4.521093617,4.504285606,5.78288726,4.112135747,0.650953006,7.583505954,1.75574997
