Channel 1 - P4,Channel 2 - O2,Channel 3 - P8,Channel 4 - T8,Channel 5 - C4,Channel 6 - Cz,Channel 7 - Fz,Channel 8 - F4,Channel 9 - Fp2,Channel 10 - F8,Channel 11 - Fp1,Channel 12 - F7,Channel 13 - F3,Channel 14 - C3,Channel 15 - T7,Channel 16 - P7,Channel 17 - P3,Channel 18 - O1,Channel 19 - Pz
-31.02961828,-16.12276864,-7.137733992,-10.67428166,-16.46145863,-2.417549454,4.892882808,1.314641544,16.71859325,10.49320195,10.19945014,-21.11132553,-4.214904383,-23.08587644,-12.5960927,-16.70602305,-51.86496823,-47.87855061,-0.527084635
-18.76232741,-4.918454561,-0.668464582,-7.548447782,-10.45722362,-0.217489106,6.719053163,4.908972716,18.33634167,10.41123687,11.11038913,-17.45205485,-0.801886438,-16.53549754,-6.637049759,-7.705444872,-40.46690508,-32.0805558,3.577044598
-1.81678261,5.730634997,4.52556182,-5.038776737,-4.359239363,0.245712718,2.551711991,3.096601757,11.75707057,3.903027239,4.652455295,-13.88105798,-1.607659974,-9.65884134,-4.667257884,-0.461480948,-20.42777032,-10.35242167,5.999110615
11.62038072,11.10312372,6.437595302,-5.135762934,-1.219299043,-1.117439524,-5.354346506,-3.151144174,0.308853999,-5.812128917,-5.447948855,-11.86017264,-5.701768659,-5.640640992,-7.593513362,1.469892084,-3.077960398,5.900066264,5.680100406
16.26306325,9.626857858,5.074425833,-9.049549455,-1.855495307,-3.230054456,-12.86035698,-10.37720279,-10.44747043,-14.09752992,-13.85046163,-11.5814178,-10.47061315,-5.896938469,-13.35004017,-2.409466437,3.220762131,9.07775219,3.293706669
12.66641271,3.585309443,2.343414595,-15.67313246,-4.56044727,-4.695289312,-16.4980934,-14.84075898,-16.03356354,-17.61193506,-16.90450173,-12.12605255,-13.27885598,-9.319748549,-18.41407637,-9.659534437,-2.018918389,-0.130968029,0.628560001
5.968344275,-2.759655141,0.56867246,-21.74765299,-6.61332902,-4.827779574,-15.43705667,-14.86276074,-15.46249226,-16.04350578,-14.6164729,-12.48636074,-13.02917722,-13.1793061,-20.20803967,-16.79845169,-12.20893693,-13.98561313,-0.692773939
1.68453362,-6.162278321,0.716097862,-23.92640446,-6.368987251,-4.073691709,-11.60072009,-11.66853317,-11.23144618,-11.83285242,-10.03939926,-12.49700336,-10.57133216,-14.96213165,-18.61753324,-21.44702476,-19.10832926,-23.44820732,-0.208021083
1.869695623,-6.309110624,1.659865391,-21.26925851,-4.339719262,-3.534234261,-8.02523386,-8.219648899,-7.151586906,-8.269917465,-6.767229287,-12.8567828,-7.79060235,-13.82733132,-15.62610265,-23.2547357,-18.56010738,-24.11398247,1.32788341
4.379432966,-5.417828741,1.045888002,-16.16365396,-2.550602819,-4.024440521,-6.757650535,-7.006513734,-5.729118196,-7.389959614,-6.511442498,-14.2716991,-6.165625518,-10.75867544,-13.55173459,-23.279018,-12.45955667,-18.20403621,2.720027465
5.367629823,-6.099063263,-2.90282718,-12.77759659,-2.805444477,-5.435524621,-7.770052128,-8.454571921,-6.917818466,-9.047469788,-8.44948271,-16.54983155,-5.889281871,-7.50996663,-13.36345869,-22.6821549,-6.108265146,-11.73306854,3.246366235
2.694588282,-9.284859233,-9.993348213,-14.05892574,-5.272119497,-6.872202233,-9.471060559,-11.00392411,-8.851444347,-11.55264293,-10.5032469,-18.52197815,-6.10267155,-5.277911219,-14.31652068,-21.91129908,-3.622727028,-9.543013863,3.013068107
-2.500337431,-13.75418828,-18.09061087,-19.48725856,-8.429779657,-7.383553151,-10.18675175,-12.58759868,-9.664730923,-13.13405225,-11.23333956,-18.92076997,-5.885613934,-4.089364386,-14.96664656,-20.83756703,-5.13847927,-12.09450706,2.597777138
-7.048007061,-17.36441484,-24.47962495,-25.30159095,-10.28839243,-6.652207262,-9.387590491,-12.23095385,-8.877283798,-13.06788818,-10.77577967,-17.48585158,-5.114134177,-3.207508722,-14.53522478,-19.38868423,-7.618132585,-16.05872733,2.4124804
-8.466192161,-18.76223951,-27.50619519,-27.12091473,-9.834746067,-5.108832545,-7.826527162,-10.56231176,-7.414407773,-11.79258376,-10.27658267,-15.33328932,-4.518091356,-2.046540493,-13.4649737,-17.8715954,-7.992397905,-17.59988207,2.374468015
-6.789174265,-18.15453107,-27.32987676,-23.11254447,-7.603060566,-3.468194461,-6.704142896,-9.009982439,-6.544125228,-10.20736976,-10.6064742,-14.22952809,-4.995836328,-0.773898226,-12.83471947,-16.66067175,-5.712571798,-15.37054567,2.121342104
-4.159684142,-16.69750877,-25.39329134,-15.44988893,-5.065281292,-2.160937708,-6.686475788,-8.507762065,-6.795606281,-8.903505188,-11.61806348,-15.3194981,-6.833832233,-0.147734251,-13.30093667,-15.66796109,-2.720937197,-10.95788833,1.494672366
-2.813696093,-15.27390339,-23.19597201,-9.013278254,-3.472264547,-1.160227805,-7.557501915,-8.815242308,-7.733013914,-7.937237668,-12.52525984,-18.30046647,-9.474747863,-0.81174713,-14.54579771,-14.26250102,-1.280391748,-6.918208321,0.79942689
-3.320955723,-13.83038373,-21.37941011,-8.216806091,-3.102910591,-0.289389314,-8.640639662,-8.93674745,-8.594544859,-7.165272069,-12.86322023,-21.6534197,-11.95063588,-2.68228683,-15.64574205,-11.83439148,-1.851938368,-4.468860437,0.586691615
-4.49109599,-11.78447746,-19.72116742,-14.11766417,-3.411010042,0.358993396,-9.481850867,-8.180072823,-9.080673834,-6.685311265,-12.98204183,-23.69155023,-13.54498347,-4.921699468,-15.91287058,-8.49251215,-2.882805445,-2.850985907,1.161274835
-4.776617797,-8.965399076,-17.82094167,-23.73293136,-3.770868457,0.349008722,-10.16882744,-6.913446482,-9.570561795,-6.927081037,-13.56349851,-23.58441952,-14.13100965,-6.478447869,-15.39026847,-5.162868559,-2.475656294,-0.632317065,2.268700989
-3.750309267,-6.088864386,-15.74201379,-31.97038782,-4.087686427,-0.717438389,-11.0805773,-6.391317086,-10.65508699,-8.329160508,-14.66866327,-21.63379236,-13.99465738,-6.741123609,-14.58782844,-2.873426932,-0.242842403,2.530737398,3.252471197
-2.34049675,-4.261657606,-14.03199437,-34.83757221,-4.765014834,-2.706701337,-12.38524727,-7.800499203,-12.48494042,-10.91093365,-15.33375219,-18.74941827,-13.41799914,-5.828896559,-13.7970405,-1.805952498,2.361642799,5.398337188,3.553456684
-1.747316392,-3.964668493,-13.17062156,-31.78221723,-6.140102062,-4.831153987,-13.77308473,-11.27406041,-14.51800293,-14.09349079,-14.23789908,-15.69313851,-12.45260165,-4.384076074,-12.70792042,-1.005744177,3.431262553,6.321710033,3.127243843
-2.153653873,-4.481867559,-13.00239045,-25.64152654,-7.949290028,-6.080635901,-14.63629531,-15.600936,-15.8234426,-16.87274619,-10.92835365,-12.72748209,-11.05725175,-3.116463626,-10.73189867,0.874289519,2.343823476,4.901714395,2.436830834
-2.446811618,-4.360623336,-12.68927143,-20.30661075,-9.31498432,-5.906303456,-14.49409348,-18.81819354,-15.6237798,-18.18926988,-6.487231562,-9.840115397,-9.39157031,-2.466727866,-7.736591085,4.33863037,0.241273801,2.53277579,2.050982524
-1.178397367,-2.565364769,-11.23919984,-17.77196162,-9.271795032,-4.615701213,-13.29042436,-19.27302506,-13.66039821,-17.29585425,-2.949917394,-7.186759219,-7.915936093,-2.566202059,-4.483489933,8.369639713,-1.123893824,1.294530742,2.205960605
2.134437739,0.641050892,-8.183346283,-16.69737275,-7.408723399,-3.153001251,-11.37219441,-16.50153196,-10.25222899,-14.04830387,-1.881122166,-5.266738617,-7.161563188,-3.390242395,-2.309004641,10.95140308,-1.04999699,2.167432903,2.688912594
6.519831676,3.831163113,-3.894715351,-13.60567617,-4.14988915,-2.427322252,-9.262663731,-11.46835435,-6.210095946,-9.116547963,-3.289368633,-4.671853033,-7.373633448,-4.883314828,-2.265965104,10.4519388,-0.516788143,4.14895907,3.093550249
10.25138095,5.442731555,0.622403031,-5.973656037,-0.517540816,-2.703960341,-7.471466787,-6.113285938,-2.751097017,-4.0180893,-5.793342511,-5.67345589,-8.360708666,-6.942669486,-4.426230321,6.780277667,-1.2404312,5.040204771,3.171951131
12.06584893,4.84958302,4.230098181,5.011324687,2.394940081,-3.503053564,-6.442373688,-2.476173473,-1.303996889,-0.760904004,-7.862646132,-8.0329723,-9.686370567,-9.336593372,-7.90506158,1.399045052,-4.052184909,3.220941512,2.952472777
11.85081605,2.636569402,6.067935254,14.25132351,3.874203855,-4.033659119,-6.526337909,-1.799847471,-2.987690006,-1.002627367,-9.01677363,-11.16485152,-11.01410298,-11.70611896,-11.54572593,-3.787829779,-8.080563636,-1.080154611,2.547252513
10.32992105,-0.040954321,5.705880429,15.65080142,3.752786992,-3.784886015,-7.835094669,-3.983672052,-7.828962291,-5.031865851,-9.932880064,-14.43945024,-12.2808503,-13.6975949,-14.66362602,-7.738215787,-11.4485763,-6.020748052,1.887375108
8.206498116,-2.373606082,3.144601271,6.401973253,2.328741242,-2.823405295,-10.02262432,-7.638370331,-14.25085729,-11.24803282,-11.43295103,-17.33119301,-13.55604789,-15.11786425,-17.25900172,-10.71789952,-12.82128002,-9.584269886,0.701974944
5.645350244,-4.304075247,-1.16651205,-10.37965902,0.192003604,-1.633030914,-12.24046945,-10.7741776,-19.48184984,-16.72775278,-13.36809227,-19.35202525,-14.76037606,-15.96136085,-19.62102696,-13.60889143,-12.40736418,-10.96574663,-1.178051564
2.534550644,-6.179006142,-6.301117349,-26.85180021,-1.953883189,-0.706373962,-13.46384823,-11.84522582,-20.99463266,-18.79915701,-14.52380633,-19.99010524,-15.56012997,-16.2770564,-21.77542464,-16.77025315,-11.55958817,-10.81480524,-3.446925265
-0.856006334,-8.100511414,-11.00494639,-35.06359985,-3.488123685,-0.247100177,-13.07398828,-10.60263902,-18.18861897,-16.71723852,-13.71378898,-18.88466639,-15.57734901,-16.00691954,-23.30402223,-19.48260128,-11.40136727,-10.30406092,-5.25983007
-3.608112459,-9.64982194,-14.1424794,-32.01089122,-4.094490264,-0.17485578,-11.28150811,-8.205602638,-13.05316193,-12.23862988,-11.07020631,-16.17936484,-14.72950322,-14.97121355,-23.66034694,-20.44968301,-11.75939317,-9.965768826,-5.635559655
-4.675688651,-10.23490859,-15.26386204,-21.56073581,-3.912626395,-0.330712868,-9.002987236,-6.429897567,-9.062470201,-8.518009612,-8.255079295,-12.70345409,-13.35417175,-13.04582216,-22.63041089,-18.88800373,-11.36074307,-9.316014254,-4.092409532
-3.783122107,-9.685918452,-14.87697004,-11.73055513,-3.470196638,-0.631840951,-7.202203928,-6.423104855,-8.836289939,-7.949546829,-7.224949673,-9.665931162,-11.9501802,-10.38565497,-20.48590468,-15.23564249,-9.08547983,-7.489707181,-1.053281246
-1.855744023,-8.486729469,-14.12018556,-9.146487567,-3.358754167,-1.031048725,-6.168051337,-7.85254938,-12.18590325,-10.45750115,-8.51007659,-7.941352263,-10.72676662,-7.474346697,-17.71241368,-10.86821358,-5.120170999,-4.210603325,2.307822316
-0.497978405,-7.395261563,-13.97251393,-14.6516611,-3.829088957,-1.367254018,-5.310080958,-9.1050594,-16.08995278,-13.53801464,-10.52308638,-7.442151317,-9.361895231,-4.904080087,-14.61534054,-7.081276102,-0.966723703,-0.199784983,4.700731268
-0.876520952,-6.805611185,-14.55501952,-23.25030373,-4.598127156,-1.313736365,-3.670487935,-8.46952136,-16.80373429,-14.1105804,-10.63381462,-7.10703011,-7.220693065,-3.015427511,-11.19859717,-4.21235844,1.705993693,3.298635917,5.405250397
-2.917897171,-6.461974655,-15.07831958,-28.31706578,-5.037571196,-0.531305223,-0.76668551,-5.471146952,-12.65392857,-10.85335909,-7.251072141,-5.599684164,-3.891893009,-1.664527153,-7.403221684,-1.616978795,2.363703033,5.405759998,4.553924036
-5.47987551,-5.800740071,-14.51193026,-26.72462162,-4.624321889,1.080396794,2.9171548,-1.342765779,-5.425217542,-5.263882142,-1.222947779,-2.244490358,0.390587209,-0.311207622,-3.410762499,1.543134464,1.947213097,6.140510608,2.869519533
-7.32082008,-4.588813391,-12.45701996,-20.84530495,-3.314535599,3.256240263,6.207416125,1.778403486,0.79098871,-0.604915242,4.653105368,2.490440231,4.798183809,1.611294167,0.347318021,5.416196664,1.994627692,6.216678452,1.108608367
-8.016564109,-3.223554203,-9.500172366,-15.90895968,-1.555767762,5.490832991,8.082066469,2.370340327,2.51045892,0.500210087,7.687337767,7.315719777,8.403345051,4.293785628,3.511431686,9.223434428,3.329276556,6.383221603,-0.366090241
-8.058508062,-2.361970141,-6.720596127,-15.00440629,0.056150762,7.324627237,8.404680492,0.623750607,-0.620802251,-1.990717167,7.292522458,10.9812669,10.73123971,7.388378186,6.107584182,11.81589722,5.42042221,6.912609759,-1.618956576
-8.121096794,-2.186780765,-4.722224311,-16.02038083,1.182939812,8.562195137,7.967113811,-1.72531969,-5.592292525,-5.531003374,5.318157046,13.01644157,11.94806092,10.18459595,8.482259609,12.51122214,6.895822166,7.604582084,-2.843389316
-8.225710209,-2.000918262,-2.990693945,-13.30483701,1.886453346,9.262168402,7.824788289,-2.703589431,-8.257488641,-6.900895293,4.480916738,13.84005944,12.58271053,11.99149389,10.8629337,11.53386687,6.702640988,8.168735124,-4.026190123
-7.592934035,-0.596593861,-0.157026237,-2.893766043,2.426501318,9.545517234,8.479500376,-1.544903513,-6.340321992,-4.57408418,6.192836749,14.26458459,13.05578243,12.47371181,12.96975152,9.795783192,4.930453151,8.565660393,-4.84280918
-5.325006716,2.831670359,4.96393851,13.00587193,2.934204993,9.422156119,9.560629799,0.822480898,-0.986833463,0.242166005,9.534086395,14.86735559,13.40369886,11.75220171,14.12628165,8.314210368,2.685130801,9.031281327,-4.832858696
-1.295370364,7.968074446,12.3316637,26.30595755,3.272263371,8.797827882,10.21047767,2.567617412,4.206333018,4.603003008,12.11736669,15.70325099,13.36278556,10.25413002,13.86177445,7.764148403,1.231897524,9.861355697,-3.69327357
3.56729741,13.4632123,20.44674902,28.42825742,3.199898432,7.637153148,9.789702025,2.347939707,5.827596678,6.00085912,12.02212471,16.44612918,12.64760645,8.444555359,12.46903622,8.390229759,1.164459203,11.21563443,-1.477964432
7.868437105,17.77781798,27.13683558,16.89462523,2.666974523,6.103894278,8.292259823,0.197610674,2.917800664,4.032218895,9.16776294,16.66854029,11.12856111,6.605660837,10.9146735,10.09865001,2.19682056,13.07252427,1.396355504
10.70182806,20.10617645,30.80254457,-2.087452849,1.941127083,4.521322893,6.171523887,-2.713692158,-2.72150922,0.38174002,5.085794504,15.95017204,8.784274659,4.759921487,10.03505471,12.44414768,3.560480218,15.23331274,4.295844387
12.15086696,20.65849123,31.23321742,-17.40043516,1.432561298,3.170877597,3.828367785,-5.13323249,-8.16283601,-2.679559919,1.468685756,13.8182289,5.579653291,2.73837272,9.654421795,14.50254006,4.525359187,17.23940234,6.566063827
12.94130144,20.1489936,29.45556195,-20.62310948,1.369987916,2.108386592,1.296541624,-6.654597225,-11.47730724,-3.987307207,-1.135072213,9.803189669,1.50834304,0.336899463,8.468670544,14.93779726,4.62449509,18.27425743,7.711782249
13.60783643,19.00920365,26.81589512,-11.850179,1.625858599,1.170144721,-1.569063245,-7.792434008,-12.72889471,-4.084648651,-3.373539451,3.808677182,-3.161631899,-2.511679747,4.97274489,12.52932445,3.585778629,17.3084761,7.537621102
13.94637247,17.03535867,24.03222545,0.668999871,1.852606459,0.169820751,-4.615854093,-9.269499238,-13.32144106,-4.454989746,-6.005237577,-3.409429268,-7.690331864,-5.621367076,-1.209986398,6.982666679,1.276190895,13.62418592,6.222185922
13.231217,13.73846106,20.89262772,6.801919646,1.800563333,-0.890710314,-7.162004979,-11.2573881,-14.53890322,-6.210342562,-8.836107361,-10.1727344,-11.0352208,-8.558381674,-8.709090268,-0.585039013,-2.150817485,7.458206078,4.268300868
10.96724548,9.010319429,16.71891261,1.951334586,1.516185297,-1.792448101,-8.348778945,-13.28329095,-16.60817223,-9.356373666,-10.7774898,-14.57047108,-12.42994628,-10.80040462,-15.14712653,-8.032594571,-6.073604357,0.212769456,2.293976817
7.469651333,3.444888752,11.13407439,-9.956867441,1.231575135,-2.287700005,-7.865628664,-14.84348332,-18.93920616,-13.1005205,-11.02527976,-15.64958442,-12.00749188,-12.00193921,-18.79024723,-13.3820381,-9.523298808,-6.131711375,0.731899026
3.739211249,-2.001437237,4.513384149,-20.01113598,1.052868778,-2.345231006,-6.427532417,-16.07980068,-21.06522856,-16.720216,-10.23968695,-14.28001429,-10.94015427,-12.224057,-19.83217766,-16.02876693,-11.6916532,-10.15122239,-0.384850763
0.750502744,-6.692941886,-2.170220419,-21.44327785,0.758620685,-2.236195492,-5.508348027,-17.80575904,-23.24211803,-20.10537111,-10.49645971,-12.90341428,-10.85319305,-11.95821918,-20.21917453,-17.04688381,-12.46837853,-11.86260067,-1.377195035
-1.205170569,-10.68956057,-7.897841421,-14.76314446,-0.06825156,-2.379560058,-6.422834591,-20.77806153,-26.11095963,-23.52211696,-13.81857053,-14.10341434,-12.8197256,-11.87064709,-22.04978239,-18.28145464,-12.49452785,-12.61830033,-2.60275611
-2.550270092,-14.44044927,-12.0893799,-7.033386877,-1.660628057,-3.069309398,-9.414633967,-24.8416897,-29.79638352,-26.94316003,-20.39063109,-18.85748421,-16.62245882,-12.38286543,-25.76508384,-20.86236321,-12.57882817,-13.9904326,-4.072608686
-3.837068075,-18.06358473,-14.70299802,-6.057633717,-3.774827734,-4.298564602,-13.45582902,-28.75683678,-33.38342018,-29.69400424,-27.96595873,-25.70332531,-20.83835554,-13.35641134,-29.59423789,-24.27031382,-12.91818031,-16.45643033,-5.299655867
-5.117504203,-20.89548863,-15.99205217,-14.13672952,-5.772961895,-5.801606914,-16.92995789,-30.95628724,-35.37206629,-30.82284215,-33.10344169,-31.50784139,-23.72871171,-14.12952042,-30.7800146,-26.69118726,-12.82790816,-18.93029913,-5.537441288
-5.860153269,-21.79486118,-16.20992904,-26.20806916,-7.048524161,-7.245939935,-18.68283376,-30.66089843,-34.78815072,-29.87037527,-33.41678918,-33.40828986,-24.32864399,-13.93708644,-27.70172136,-26.39593132,-11.31142915,-19.55792596,-4.279855588
-5.490038551,-20.02522451,-15.50816157,-33.65014376,-7.452384932,-8.394945461,-18.64920017,-28.42705497,-31.9880493,-27.30149861,-29.18148481,-30.62797797,-22.98194478,-12.4653099,-21.26794697,-23.0790731,-8.058690223,-17.18478566,-1.674542721
-4.045636285,-15.99951223,-14.03248856,-30.68045902,-7.355647409,-9.120934899,-17.62289036,-25.64674647,-28.42421086,-24.15872892,-23.11192412,-24.92162005,-20.9746786,-10.15682831,-14.48141839,-18.13152132,-4.012070113,-12.34191878,1.460494341
-2.32914564,-11.22801908,-12.03234011,-18.46362381,-7.287038599,-9.311460619,-16.43020338,-23.40160438,-25.53563964,-21.22720275,-18.50464087,-19.35991501,-19.56906159,-8.015406143,-10.47075069,-13.67031888,-0.924112176,-6.965826944,4.049203676
-1.371994652,-7.436046945,-9.820981573,-4.015277735,-7.448991232,-8.818249839,-15.21852263,-21.62914226,-23.68930675,-18.47263272,-17.12815893,-16.318982,-19.13977219,-6.992786182,-10.43728735,-11.10221916,-0.159794679,-3.075990741,5.321228128
-1.642801283,-5.485564184,-7.600472364,4.980194927,-7.526410372,-7.546027764,-13.42605721,-19.30202303,-22.04763399,-15.2713624,-18.32008788,-16.05453366,-18.99007129,-7.345254722,-12.9858059,-10.29667864,-1.667357348,-1.445101695,5.150312694
-2.653016471,-4.88910583,-5.308961493,5.396326292,-6.953791205,-5.6192822,-10.40126385,-15.45910968,-19.42512552,-11.20607291,-19.7494477,-16.76648265,-17.90657517,-8.397806546,-15.22188653,-9.890276305,-3.956155626,-1.247973555,3.975706988
-3.277428827,-4.230140163,-2.627741128,0.187028459,-5.41232759,-3.454968166,-6.105683421,-10.19684321,-15.34964447,-6.645491516,-19.08307331,-15.98767906,-15.00796537,-8.898481065,-14.69859132,-8.344399223,-5.120627959,-0.839599154,2.429544614
-2.515262668,-2.114866934,0.856535976,-4.510203822,-3.131168239,-1.622532588,-1.29952331,-4.760699699,-10.40754765,-2.501618155,-15.30534381,-12.25955153,-10.30695104,-7.755097543,-10.78771824,-4.88099699,-4.105988639,1.074144998,0.983479834
-0.090152749,2.056170181,5.452622052,-4.125343268,-0.737629737,-0.552479258,2.924667287,-0.646088235,-5.631206046,0.663336335,-8.94257338,-5.979562612,-4.678373528,-4.693272351,-4.651437944,0.319065949,-1.243141159,4.804131243,-0.147379297
3.518222847,7.956674703,11.23241287,1.375126844,1.209929313,-0.302099365,5.845931844,1.532971369,-1.559432796,3.331841457,-1.384879907,1.008640658,0.646190131,-0.432976901,1.878025511,6.563206753,2.275495256,9.910460313,-0.861004142
7.51368127,14.73721415,17.97229917,8.225404524,2.604834068,-0.563540143,7.474333021,2.449472367,2.121155372,6.761842587,5.934679519,6.629132468,4.673657874,3.697966708,7.474303115,13.14824853,5.41922569,15.82216502,-1.008766236
11.24628172,21.48476524,25.12052756,12.28687756,3.771865029,-0.91412527,8.314513652,3.406308898,6.009303968,11.82166745,11.92130545,9.694383289,6.990039404,6.442495286,11.69726745,19.43819018,7.921001573,22.10544941,-0.423911854
14.33848852,27.37229779,31.79490101,12.28147236,5.081325979,-1.114979181,8.800797519,5.186927791,10.04280207,17.87447179,15.7800347,10.26662239,7.741386933,7.169270833,14.54471139,24.58996741,9.999717219,28.13117818,0.870395838
16.50709832,31.55224215,36.89930115,10.41975493,6.548400046,-1.227021876,8.925054737,7.399175014,13.12078477,22.76840105,16.97382277,9.225762179,7.379165748,6.026160913,15.83485437,27.41877209,11.59105527,32.62549307,2.486632375
17.40890468,33.14157082,39.43093727,10.21564573,7.768591242,-1.466839557,8.365402377,8.865009835,13.76968478,24.15027479,15.44625918,7.532458238,6.374252655,3.705200857,15.0909251,26.77757134,11.933472,33.82493093,3.749548609
16.76115313,31.52937282,38.89479632,13.40811361,8.233974427,-1.940497728,6.953421922,8.701555873,11.37630701,21.18707458,11.91629708,5.747897148,5.043693482,1.055136431,12.01708503,22.28943432,10.01295031,30.42659323,4.034504307
14.64060395,26.83926337,35.57318251,18.41315391,7.738651599,-2.49065296,5.012731457,7.137927695,6.924753722,15.32011723,7.80503969,4.039080521,3.528697242,-1.20695007,7.06270958,14.83758866,5.540115701,22.69204628,3.139797097
11.61429338,20.10750359,30.40464562,21.41024703,6.511533819,-2.79200549,3.225228313,5.336419808,2.503538826,9.34728343,4.610713682,2.484751924,1.885870162,-2.591797569,1.494180841,6.318615976,-0.426227231,12.72485008,1.407840056
8.469215328,12.88856114,24.46922659,19.16007265,4.966765267,-2.618817499,2.114817149,4.349158683,-0.141494701,5.444537861,3.080959802,1.319446315,0.2172911,-2.822731652,-3.152147542,-1.262863997,-5.863526814,3.483821759,-0.508062264
5.693255007,6.469430509,18.39495263,11.44936051,3.30815541,-2.062364496,1.596460342,4.10765632,-0.887135674,3.636796686,2.81948216,0.891317305,-1.247787327,-1.837960042,-5.826653649,-6.735936473,-8.99323904,-2.887140602,-2.060869144
3.144893566,1.245816271,12.12074038,1.429747052,1.355985305,-1.513715311,1.007029562,3.353881737,-1.280402735,1.94123905,2.690688722,1.395369811,-2.191224444,0.151557968,-6.382934758,-10.08945755,-9.407830087,-6.207779549,-3.102002149
0.239590411,-3.264152312,5.226000439,-6.338058426,-1.233125061,-1.413337051,-0.361617219,0.652591711,-3.243442897,-1.88465414,1.750201716,2.633418855,-2.371462125,2.630810907,-5.435414658,-12.04126819,-8.241894595,-8.028836394,-3.849401177
-3.454583917,-7.78115529,-2.396753082,-8.753185458,-4.53487965,-1.951150085,-2.632739828,-4.291555998,-7.417916871,-8.338398269,-0.021791211,4.018164077,-1.824016615,4.883249304,-3.894600739,-13.30826959,-7.269369322,-10.22500489,-4.594735328
-7.697388813,-12.50786935,-10.0540658,-6.025717218,-8.094144481,-2.936597519,-5.122403276,-10.08903288,-12.46347142,-15.49526659,-1.766302383,4.840621132,-0.941015745,6.237058164,-2.581565317,-14.20035247,-7.649534379,-13.53045525,-5.409469404
-11.58772914,-16.84404841,-16.38048674,-1.333478409,-11.08096008,-3.92746376,-6.719954885,-14.39389517,-15.9054157,-20.22559515,-2.519141898,4.626729471,-0.321501552,6.334785455,-2.10332693,-14.77217865,-9.26826215,-17.12758278,-6.084176664
-14.12825572,-19.76823635,-20.06007791,1.40947568,-12.77162776,-4.516675684,-6.601624182,-15.4110383,-15.91564329,-20.39937143,-2.061836363,3.359266417,-0.440097587,5.263858642,-2.845237049,-15.205366,-11.07386727,-19.49381229,-6.323257721
-14.89962502,-20.54664446,-20.64270847,0.147675071,-12.99196249,-4.571662663,-4.756978796,-13.06789444,-12.66934733,-16.40340828,-1.135168861,1.45161222,-1.336845998,3.474463838,-4.855004308,-15.88877717,-11.99133049,-19.684567,-6.005222161
-14.30659376,-19.20158069,-18.84822666,-4.070890187,-12.18945568,-4.269282969,-1.958642371,-8.983396734,-8.236122669,-10.83507323,-0.823461126,-0.468345235,-2.549810012,1.557379649,-7.6237626,-17.00599938,-11.61109052,-17.94796222,-5.281993443
-13.21780445,-16.41735437,-16.1133551,-7.982190336,-11.09638441,-3.922261502,0.775477599,-5.279382034,-5.086732191,-6.643332803,-1.595625089,-1.802181564,-3.356138363,0.034144032,-10.0400931,-18.00165504,-10.17100792,-15.235014,-4.446484434
-12.32108483,-13.04110421,-13.69976397,-8.4790682,-10.25700461,-3.734372063,2.820384553,-3.139105019,-4.34687148,-5.151302578,-2.774891425,-2.120518963,-3.167691608,-0.737035855,-10.77370601,-17.53757402,-8.033564103,-12.17159297,-3.700599028
-11.72644939,-9.630086293,-12.00864979,-4.833019967,-9.76956183,-3.657475656,4.237380432,-2.16857526,-5.100789134,-5.421754124,-2.886735956,-1.188445811,-1.821069362,-0.560169787,-8.994603818,-14.20234779,-5.27206516,-8.50800234,-3.03088539
-11.10152028,-6.377705813,-10.57904728,0.760508226,-9.393664978,-3.442187338,5.558457895,-0.972189014,-5.231407122,-5.338948762,-0.67196663,1.029198335,0.4021846,0.595118877,-4.961688237,-7.573307952,-1.779654638,-3.579826554,-2.29154172
-10.15169569,-3.365018693,-8.715158093,4.683901276,-8.877759316,-2.839911572,7.265140073,1.563368962,-3.127111585,-3.462298777,3.939073022,4.297537067,2.975309551,2.526434202,0.000349432,1.172215667,2.260228301,2.650548481,-1.408107407
-8.977516669,-0.798842341,-6.20922788,4.39227974,-8.212273554,-1.815677001,9.35180779,5.274365621,1.032117724,-0.183004326,9.567380715,8.009293741,5.350243505,4.727159714,4.200459327,9.657329056,6.08910401,8.979093384,-0.513487484
-7.985295296,1.041588016,-3.572115837,0.147041711,-7.61273985,-0.625599678,11.26363324,8.740164332,5.339951874,2.657432765,14.02732689,11.2011694,7.052799537,6.444403116,6.500212849,15.54986039,8.657386752,13.44920539,0.108310671
-7.445940791,2.105113657,-1.587894114,-5.224222767,-7.27726469,0.301146351,12.22019456,10.26153014,7.491287104,3.2970696,15.47426677,12.82539516,7.670479119,6.938640437,6.819378394,17.84228203,9.311908208,14.66728986,0.230174971
-7.111841472,2.805792505,-0.549784355,-8.332760833,-7.138951236,0.610648483,11.68865329,9.054364296,6.380904759,1.487159879,13.37288549,12.23223749,6.879303843,5.851954545,5.928814973,17.31890066,8.31168575,12.91745726,-0.122223078
-6.245622768,3.923756334,0.205308643,-7.517892531,-6.818170736,0.247939781,9.707749313,5.811499114,2.841312486,-1.267021791,8.746296565,9.59456014,4.601620743,3.459999417,4.793362612,15.94731664,6.709864769,10.15249211,-0.635827468
-4.058546515,6.1928097,2.057278906,-3.766218755,-5.811377357,-0.494232512,6.891068274,2.283143351,-0.943574956,-2.787003687,3.603849212,5.940704983,1.204176544,0.612532406,4.033653393,15.67275111,5.673793485,8.810880475,-0.859309941
-0.224561952,9.870331731,6.262908141,0.328305664,-3.782032357,-1.145986145,4.142128179,0.218478493,-2.869313607,-1.757878776,-0.102282032,2.670705543,-2.475275324,-1.640607887,3.873739072,17.42789206,5.78339644,10.31689246,-0.43153677
4.895144353,14.58761018,13.04925838,2.659042919,-0.769027783,-1.346938499,2.262089864,0.398641753,-2.172796253,1.416852638,-1.411314765,0.805193375,-5.398891039,-2.525923993,4.438808659,20.89478473,6.833677951,14.32216276,0.747275441
10.42105947,19.52696824,21.22411562,3.08562036,2.793047827,-1.055281451,1.654417827,2.348738876,0.280584741,4.990293316,-0.683906228,0.469415007,-6.782299554,-1.843908856,5.94185409,24.95669965,8.201778477,19.11835466,2.473747031
15.32599813,23.716581,28.55193666,3.182469009,6.225695269,-0.527883551,2.245147712,4.809468135,2.757250624,7.092618374,0.821854865,1.000559194,-6.435507023,0.058657935,8.456905026,28.35386812,9.36070485,22.75529261,4.313295673
18.73829035,26.21259134,32.67948554,4.566554384,8.838794581,-0.081812885,3.609972722,6.564176927,3.835117119,6.860173155,1.845693478,1.61238213,-4.757732644,2.557395764,11.46620681,30.09034612,10.06261713,23.97590002,5.730750323
20.06993369,26.1474899,32.10884015,7.255928755,10.14615673,0.180820791,5.202246461,7.066225213,3.179273797,4.724887961,1.91995303,2.089393053,-2.422828149,5.033078543,13.70944557,29.49999418,10.10356214,22.41093283,6.239053088
19.06034336,22.82739476,26.74961783,9.450139105,9.99709969,0.458143604,6.552499144,6.535518279,1.47388009,1.815434915,1.539178537,2.91188126,-0.034052576,6.994074939,13.69158136,26.19483038,9.029482749,18.18937351,5.54622405
15.85349402,16.02677428,17.85535794,8.923973394,8.587527281,1.053847062,7.360709364,5.583374313,-0.297928146,-0.945763431,1.583395019,4.652977392,1.984710321,8.049769837,10.62796295,20.12711548,6.214590156,11.56053864,3.669594089
11.07699844,6.367526167,7.459837877,4.884551774,6.345241393,2.041719957,7.488070204,4.70437065,-1.616354081,-3.351895673,2.410888496,7.12803323,3.255790891,7.890039291,5.127834694,11.75787528,1.365587758,2.946219664,0.960605289
5.757916051,-4.560528887,-2.385648033,-1.236450938,3.731456574,3.070626057,6.916813545,3.987039689,-2.67746008,-5.741446897,3.331204423,9.079784366,3.33117943,6.395297151,-0.996414089,2.120305275,-4.962693729,-6.715596485,-2.004788315
0.974718937,-14.61151385,-10.25601956,-6.70202926,1.0527139,3.513955458,5.742860345,3.183406478,-4.02316397,-8.417127071,2.952768702,8.832515109,1.849207783,3.827267077,-5.766365747,-7.390987987,-11.35863809,-15.8463101,-4.6440421
-2.617871144,-21.92692952,-15.65965224,-9.356170927,-1.610165799,2.906244871,4.203779889,2.015275531,-5.908249966,-11.18957371,0.257423529,5.557371988,-1.073283171,0.902062018,-8.205783966,-15.43625692,-16.18576158,-22.66470349,-6.584157778
-5.070149824,-25.723829,-18.94093999,-8.989524421,-4.311262611,1.359442008,2.680576642,0.459022485,-7.930445216,-13.40535705,-4.364730913,0.187987163,-4.57074428,-1.418606874,-8.776258387,-21.09496522,-18.44276082,-25.98903879,-7.748845866
-6.982126215,-26.49421061,-20.86338961,-7.188715175,-7.052165212,-0.378208336,1.610141587,-1.191149876,-9.214913578,-14.39550566,-8.97448649,-4.840484628,-7.252284343,-2.368587431,-8.763282751,-23.96733442,-18.21861747,-25.80576791,-8.273468134
-8.98661446,-25.46412556,-22.08234319,-5.940921474,-9.63966148,-1.317592827,1.318902351,-2.494974788,-9.005112152,-13.95852193,-11.09854271,-7.004228358,-7.92164366,-1.781889546,-9.111443447,-24.03313028,-16.41976158,-23.13250593,-8.33190615
-11.24282646,-23.69471901,-22.76482765,-6.218222831,-11.70199299,-0.834662752,1.877745341,-3.114316077,-7.20071142,-12.49497937,-9.282823453,-5.298021074,-6.331628381,-0.166322189,-9.629792972,-21.47430108,-14.02424172,-19.25483245,-8.021759851
-13.31975703,-21.46562599,-22.5442848,-7.630931857,-12.85595191,0.933214003,3.095398274,-2.94216532,-4.426836311,-10.69745006,-4.080874829,-0.837542258,-3.373783695,1.631943874,-9.173308209,-16.6347104,-11.46771031,-14.91468145,-7.389889598
-14.53911151,-18.34662239,-20.81996748,-9.207598806,-12.89857562,3.182986547,4.675912745,-2.033248614,-1.578291577,-9.032925626,2.28457692,4.031496632,-0.477107339,2.951129636,-6.616856172,-10.08689364,-8.599882396,-10.04530219,-6.540174686
-14.47712847,-13.82130598,-17.21330392,-10.38705015,-11.88227545,4.960437023,6.427661884,-0.432001165,0.81402777,-7.397724914,7.383716469,7.456363342,1.386483113,3.659327398,-1.822452016,-2.624007622,-5.136492785,-4.183914609,-5.677249611
-13.21226262,-7.915887017,-11.90120228,-11.25030096,-10.03500143,5.719245117,8.346642059,1.913666143,2.904121376,-5.198405156,10.10280412,9.299950832,2.332672045,4.093702357,4.151488295,4.937605263,-1.132547708,2.842074439,-4.994843953
-11.14762202,-1.332745403,-5.628251324,-11.87712597,-7.616905491,5.537752387,10.48108971,5.035221806,5.278583374,-1.82160794,11.10470588,10.9106002,3.315685271,4.67377385,9.708121561,12.03452561,2.945938515,10.52169004,-4.477940984
-8.616283575,4.966888529,0.593841686,-11.64557115,-4.845603838,4.885994648,12.66883459,8.692465303,8.307465602,2.80402098,11.92113401,13.64906172,5.17277319,5.505033786,13.66216296,18.45472374,6.554604677,17.82005386,-3.809349603
-5.655428836,10.33127868,5.90195429,-9.399098514,-1.938293393,4.178013112,14.37487151,12.21152634,11.59362603,7.92280651,13.43885487,17.39930766,7.722631484,6.267637156,15.73737885,24.11610704,9.429764387,23.68419483,-2.525784374
-2.15553036,14.65211249,9.870631462,-4.550380631,0.808588868,3.477638072,14.8157796,14.6152716,13.9711014,12.15988992,15.00903908,20.32190876,9.668529278,6.437842008,16.31366031,28.68560938,11.60372242,27.46865651,-0.368865614
1.77833669,18.11421317,12.55025797,1.847246863,3.029126387,2.558187714,13.34936409,15.04628327,14.11569561,14.14877069,14.89474706,20.1084277,9.433219749,5.632610032,15.77274643,31.41128473,13.07743786,29.02671367,2.417844695
5.633594261,20.75617306,14.30581916,7.242298258,4.431595018,1.20635682,9.888240224,13.23977099,11.37928716,13.24294035,11.68843271,15.76761549,6.309113831,3.810351476,14.0842104,31.4268624,13.51921851,28.55750669,5.105078774
8.707400394,22.29521303,15.60732823,9.197675426,4.981757281,-0.525453376,5.046703843,9.718199867,6.275864245,9.894957471,5.554748965,8.52389301,1.04774103,1.228619811,10.99173497,28.3969695,12.36257684,26.47144613,6.854891605
10.59916523,22.40659761,16.88943659,7.385347292,4.968489936,-2.33089493,-0.095772222,5.541876271,0.271796255,5.450949851,-1.693647809,1.108034855,-4.551703918,-1.719237415,6.585142451,23.02068551,9.301527266,23.39865311,7.223727645
11.56687131,21.20381203,18.48853294,4.293042849,4.873768863,-3.880048575,-4.462941344,1.75739842,-4.992929905,1.444791152,-7.737342643,-4.004420198,-8.722439538,-4.597961655,1.689610995,16.92733705,4.771706623,20.20213083,6.432783359
12.41336623,19.44066901,20.59070987,3.776500562,5.125513636,-5.030861395,-7.379091677,-1.09187881,-8.541584248,-1.206986247,-11.20368939,-6.04365312,-10.66378172,-6.898638214,-2.335541402,11.91846122,-0.050508017,17.77334847,5.19764516
13.9430831,18.16016847,23.14508273,8.257186617,5.905303408,-5.826350698,-8.67442853,-3.07211407,-10.42140875,-2.618473197,-12.32702236,-6.027162311,-10.69217608,-8.013191006,-4.283905147,9.021218334,-3.826175044,16.5961835,4.231965556
16.38155442,17.98351068,25.7788248,16.58547306,7.128264197,-6.306785493,-8.517374978,-4.547004371,-11.39804931,-3.688928184,-12.39253785,-5.551379548,-9.631903384,-7.384652094,-3.76218573,8.003579738,-5.816388482,16.3680407,3.785572436
19.18123872,18.569429,27.80266619,24.31437978,8.560943509,-6.353694124,-7.18575463,-5.725153715,-12.25119139,-5.354569494,-12.51608878,-5.382811164,-8.04438878,-4.831370563,-1.347057721,7.68785848,-6.258270812,16.04369914,3.549094912
21.3294532,18.6880861,28.36139359,26.45033245,9.936924156,-5.752103109,-4.979739077,-6.438478451,-13.18770113,-7.844660924,-12.78270552,-5.004215598,-5.932443594,-0.817590964,1.816899172,6.816535412,-6.07654583,14.39096351,2.973379537
21.89704904,16.90565682,26.69017884,20.88048239,10.96809534,-4.435067341,-2.294575731,-6.323972732,-13.76946071,-10.47352658,-12.38984326,-3.38983757,-3.074771514,3.605000734,4.610359831,4.82844716,-6.1730386,10.72709735,1.735782103
20.43220579,12.42360246,22.36553205,10.04427858,11.2907018,-2.672204243,0.308799658,-5.247306089,-13.37055843,-12.14811234,-10.58167152,-0.238193969,0.404975695,7.242746508,6.284453857,2.006332638,-6.848570823,5.31384406,-0.014040243
16.99592315,5.516053772,15.44688203,-0.447393596,10.48402917,-0.983604384,2.202380102,-3.60529185,-11.80880246,-12.25998544,-7.544783675,3.440158585,3.785341349,9.328645097,6.421990455,-1.028220502,-7.766528388,-0.876276141,-1.804911105
11.95271914,-2.676410154,6.475505722,-5.41940221,8.245579218,0.198144228,2.952825494,-2.234552961,-9.685895159,-11.31774704,-4.532478069,5.86956215,6.033084077,9.809056946,4.749673212,-3.984247048,-8.406673515,-6.820967525,-3.244675046
5.783784098,-10.7741225,-3.634495729,-3.54913922,4.637915731,0.845270916,2.554610563,-1.959866607,-8.174819944,-10.80665434,-3.146273845,5.702737259,6.372633954,9.137656896,1.132629924,-7.144446188,-8.577457405,-11.99974266,-4.329866554
-0.930174366,-17.73501002,-13.76213706,1.741792589,0.20021791,1.338932165,1.427822207,-3.092092838,-8.361087512,-12.27930524,-4.345734213,2.878647639,4.681525788,7.761398236,-4.166209087,-10.97044308,-8.558777827,-16.40879595,-5.40966377
-7.450152257,-23.03912459,-22.77458813,4.55627786,-4.222288931,2.11922847,0.157198046,-5.219008837,-10.53620959,-16.23960568,-7.884620824,-1.471146882,1.465581313,5.749154858,-10.22079246,-15.40775813,-8.798170967,-20.08192057,-6.837273675
-12.94552094,-26.50051003,-29.73583618,0.454922675,-7.862043926,3.256464383,-0.82894397,-7.411002335,-13.88300262,-21.58131027,-12.46690648,-5.846060981,-2.452614086,2.902553283,-15.52867874,-19.503987,-9.461232322,-22.59513504,-8.595994626
-16.75470592,-28.00330498,-34.08832712,-10.54818053,-10.36660754,4.316792709,-1.386255939,-8.675125624,-16.76876586,-26.01599975,-16.38838532,-9.163434096,-6.21628429,-0.733532831,-18.55433873,-21.73600648,-10.22868576,-23.06003682,-10.20673231
-18.67450905,-27.44373664,-35.73565951,-23.88741013,-11.84429781,4.668342868,-1.508271393,-8.35850494,-17.51110617,-27.27678523,-18.20521768,-10.93109503,-9.024114881,-4.428460834,-18.44088821,-20.8975753,-10.49307946,-20.69937499,-11.00121377
-19.02280294,-24.90671698,-34.97357112,-33.28136079,-12.59869627,3.99959673,-1.080571164,-6.302177133,-15.20470665,-24.35660906,-17.134244,-10.89900455,-10.14508018,-6.862562612,-15.41550903,-16.94421135,-9.770979116,-15.58604708,-10.56283774
-18.38155836,-20.86052564,-32.29941348,-34.62563116,-12.78658867,2.620236872,0.187968774,-2.762502762,-10.15398506,-18.00582153,-13.18002255,-8.767269892,-9.070542368,-6.818527581,-10.60503279,-11.17275907,-7.998175078,-8.938734605,-9.013994856
-17.20171405,-16.12714917,-28.21656704,-28.40910081,-12.2927248,1.272866667,2.534156238,1.742427734,-3.676889083,-10.20354739,-7.102477592,-4.377815793,-5.817469611,-4.010994844,-5.397004379,-5.548977298,-5.510451552,-2.664651347,-6.948588333
-15.5791823,-11.58306246,-23.15366141,-19.11876748,-10.91856872,0.584390255,5.774113085,6.536334584,2.590994529,-2.992171021,-0.246009854,1.781758046,-1.12425431,0.580030312,-0.789082426,-1.580051151,-2.780338961,1.60746096,-5.066249111
-13.36198328,-7.77906012,-17.51559574,-12.08220755,-8.6974099,0.595197855,9.132039338,10.84823503,7.470055448,2.544963233,5.841947263,8.361227064,3.746734358,5.176478962,2.871256784,0.545749917,-0.145877369,3.380080206,-3.76281673
-10.45183137,-4.737429478,-11.75436326,-9.875517644,-6.028176737,0.754220822,11.47826473,13.92912649,10.63275061,6.538216395,9.973194315,13.62388408,7.582988424,8.179742552,5.686814602,1.984022724,2.280112051,3.474538293,-2.937201741
-6.994734055,-2.046110234,-6.317172252,-10.70775746,-3.479445238,0.388988589,11.87274927,15.25959277,12.42761261,9.765343376,11.79914314,16.36868852,9.785597123,8.980177757,7.817268729,4.385787791,4.508998723,3.458110316,-2.109095913
-3.277166984,0.844214068,-1.448929026,-9.881337629,-1.418677117,-0.735420443,10.05291945,14.75235645,13.32648981,12.77439238,11.85553004,16.56430812,10.47580867,8.055342644,9.237317615,8.699184843,6.509847574,4.706241355,-0.742347982
0.552473059,4.324270939,2.993356921,-3.358129964,0.202916419,-2.231854905,6.529159657,12.78754404,13.43820579,15.36197376,11.05689371,15.13844387,10.06085282,6.365307209,9.787388054,14.37998828,8.107973563,7.681691603,1.42997357
4.621832118,8.474920063,7.486626814,9.002254667,1.70076535,-3.432245472,2.24426219,10.00725874,12.45142803,16.73740902,9.960451645,13.08936432,8.667980451,4.577569219,9.382498349,19.52993461,8.993250779,11.80478828,4.242824562
9.128593673,13.05877014,12.46416628,22.8083592,3.257327736,-3.961928081,-1.925173152,6.980457934,10.01425723,16.15943911,8.368190273,10.70518761,6.014805309,2.734532418,8.141098206,21.91270261,8.81031553,15.88078288,7.146089638
13.92201332,17.56793667,17.80836712,31.64764253,4.629532588,-4.052530109,-5.459975203,3.969968201,6.202726439,13.50397714,5.624230839,7.60056056,1.912611813,0.566094771,6.326236321,20.24687334,7.291540972,18.73796986,9.406065911
18.25569922,21.27924295,22.59630283,31.10888385,5.254627747,-4.313331581,-8.126255638,0.97349649,1.665614096,9.343226996,1.411520318,3.541247396,-3.014154246,-1.897718194,4.201818171,14.98589827,4.405030003,19.69174925,10.36525708
21.01249397,23.36083977,25.38668548,21.58485509,4.710227112,-5.13866544,-9.702567261,-1.997475845,-2.679435559,4.557040809,-3.590313763,-0.724062299,-7.112167653,-3.991568477,1.984343093,8.095974378,0.470333216,18.648457,9.671834649
21.32469388,23.09820426,24.97789826,7.930905543,3.160619575,-6.249692127,-9.824789362,-4.631768308,-6.124261897,-0.124848817,-7.759810374,-3.476043406,-8.376025363,-4.67725736,-0.054930318,1.960165139,-3.842653649,15.91906521,7.412473406
19.15490153,20.21192007,21.18997627,-3.742563949,1.39561012,-6.781755757,-8.136661729,-6.280449568,-8.394718839,-4.251531702,-9.331545713,-3.025071152,-5.667457592,-3.213610355,-1.478767019,-1.913057685,-7.699206867,11.95559597,4.105391112
15.38352038,15.10283795,15.12939898,-9.832357661,0.379106574,-5.896916141,-4.641764464,-6.249617885,-9.443764447,-7.417189149,-7.391200223,1.035494153,0.401173723,0.287172543,-1.766720983,-3.576609412,-10.42823715,7.195478755,0.544891276
11.30678251,8.822424562,8.695992924,-10.89523483,0.621564181,-3.471476493,0.045392028,-4.263840286,-9.083026459,-9.025397268,-2.391244025,7.331071956,7.632152821,4.830244975,-0.638874819,-4.327054442,-11.81863691,2.062215814,-2.458801748
7.898056564,2.698685401,3.597893616,-10.1583913,1.842415996,-0.326371282,4.792312775,-0.799990883,-6.942446926,-8.459637184,4.089670523,13.38654554,13.40418329,9.024936673,1.582662736,-5.649920525,-12.18075397,-2.96459427,-4.350060389
5.355573755,-2.222992605,0.490059598,-10.26371905,3.167340529,2.199389575,8.373034305,2.952117938,-2.974748146,-5.685965273,10.06565557,16.97420373,16.02851038,11.70859956,3.895190693,-8.177784438,-12.11150214,-7.344298811,-5.001057628
3.216288939,-5.610001549,-1.2202485,-10.95333962,3.694795695,3.04641758,9.976708254,5.535692104,1.865499207,-1.810268919,13.83219627,17.13925568,15.38316962,12.30773145,4.994250276,-11.36746336,-12.12025903,-10.60719804,-4.720680721
0.871091581,-7.880367079,-2.80831854,-9.588755322,3.004783183,2.052524661,9.51574641,5.881743373,5.510453783,1.04529624,14.34682594,14.27837208,12.51699231,10.8293602,3.960788731,-14.05963869,-12.38234058,-12.5678083,-4.105193924
-1.957084691,-9.822956389,-5.319527757,-4.041138757,1.273367757,-0.016085619,7.60545562,3.849493936,5.697953042,0.767185207,11.40310163,9.480690476,8.717424939,7.680754858,0.849180182,-15.43409018,-12.77590536,-13.45958979,-3.798392373
-5.105238158,-12.03911426,-8.920895743,4.533488804,-1.000448007,-2.000634049,5.281679332,0.364447936,1.545519954,-3.340754259,5.794937909,3.870294292,4.85311958,3.557265227,-3.218260208,-15.59836849,-13.11079493,-13.83696705,-4.250407134
-8.207064206,-14.55168678,-12.89580292,11.54177135,-3.357920784,-3.056226845,3.609434949,-2.959160213,-5.34667341,-9.762085944,-0.610818663,-1.534708792,1.39900778,-0.580855165,-6.55352524,-15.35605909,-13.29624938,-14.23013915,-5.550723611
-10.9713041,-16.80592891,-16.19300027,11.8538862,-5.535220331,-3.067934765,3.303997064,-4.580944469,-11.33875569,-15.34253239,-5.266051439,-5.622354799,-1.159794232,-3.637817124,-7.734258377,-15.35865974,-13.277309,-14.73630863,-7.385868708
-13.23588098,-18.02764822,-18.08927826,3.642166663,-7.367314315,-2.570327757,4.439277485,-3.835733152,-12.81328773,-17.09156453,-6.018029094,-7.246916116,-2.191305699,-4.768455703,-6.297271081,-15.34402678,-12.83019145,-14.84036252,-9.145983924
-14.81645685,-17.68720924,-18.52434917,-9.887652812,-8.653041104,-2.31452561,6.334521206,-1.34921319,-8.635763202,-14.12210882,-2.468619345,-5.849185135,-1.349234667,-3.878201222,-2.9222562,-14.1123021,-11.49514737,-13.66137239,-10.16504891
-15.40506276,-15.78150661,-17.96870635,-22.3914404,-9.204142518,-2.814692193,7.741650169,1.216631782,-1.239073327,-8.383740205,3.348441821,-2.195573075,0.812228123,-1.839508151,0.95808651,-10.32206187,-8.835878871,-10.54159657,-10.01794302
-14.7262465,-12.79414668,-17.02598355,-28.59730853,-9.068428907,-4.135921487,7.379963417,2.031132811,4.671727738,-3.563425272,7.782764198,1.608271669,2.771239426,-0.110533249,3.871813879,-3.545531537,-4.895919056,-5.615259949,-8.739710606
-12.86907944,-9.408792366,-16.09682842,-27.6555798,-8.679227836,-5.965992046,4.643729662,0.134467479,5.127032207,-2.780939883,7.700116102,3.219238794,2.85385741,0.129453985,4.959080308,5.196374285,-0.460749338,0.058523286,-6.833900741
-10.46962672,-6.18533854,-15.29232465,-23.09676783,-8.690231663,-7.834902305,0.083837071,-3.97014593,-0.412020421,-6.602160886,2.619106066,1.65334529,0.439458699,-1.228756211,4.261360652,13.82380077,3.195814344,4.955607292,-5.032697595
-8.478573858,-3.38970144,-14.54550019,-19.54998319,-9.52826009,-9.318762398,-4.728989214,-8.587041505,-8.637266629,-12.74100901,-4.758625854,-1.89024852,-3.436632947,-3.11509618,2.569419364,20.24620547,5.007143923,7.881952399,-3.924298341
-7.59246243,-1.033197103,-13.74209309,-18.94293473,-10.99560529,-10.15330865,-8.012793523,-11.85306608,-14.66471681,-17.67196058,-10.24561213,-4.819528135,-6.715813709,-4.011167977,0.965696225,23.35356664,4.773815011,8.582758811,-3.668032925
-7.757966223,0.966020334,-12.75483715,-19.26428139,-12.28788364,-10.27300942,-8.819053442,-12.88399542,-15.43374295,-19.02980724,-11.05188888,-5.115857505,-7.817236578,-3.042098555,0.307101102,23.3332893,3.267497006,7.753384954,-3.979331841
-8.164939783,2.643852726,-11.41747231,-16.81536023,-12.49262402,-9.809176011,-7.615023722,-12.26964272,-11.78426994,-17.11076453,-7.771338458,-2.957351371,-6.839507519,-0.634379099,0.878980423,21.22775711,1.659641251,6.465007765,-4.38801856
-7.785785025,3.965551202,-9.550289521,-9.97423055,-11.23133359,-9.045015246,-5.94071005,-11.54781188,-7.681861131,-14.43688866,-3.904675649,-0.603994334,-5.435483734,1.766597447,2.346533543,18.17437112,0.695869041,5.443066533,-4.576283372
-6.080683821,4.900045117,-7.079618689,-1.234684001,-8.950532574,-8.30920054,-5.311581326,-11.99784957,-7.154741413,-13.7443103,-3.164473749,-0.503358848,-5.380353414,2.729461762,3.991591055,14.8957107,0.259180629,4.726879421,-4.543013808
-3.341745381,5.499424102,-4.163310076,4.287216697,-6.613301663,-7.828928513,-6.12040872,-13.61067509,-11.21229156,-15.88495703,-6.552158849,-3.091524375,-6.968375278,1.86303367,5.102359795,11.69079605,-0.341295508,3.917101781,-4.47941261
-0.428777502,5.894109051,-1.187864773,2.745348909,-5.010607744,-7.620098174,-7.350081839,-15.00644603,-17.03092995,-19.16635841,-11.4627171,-6.136149299,-8.594706478,0.086843146,5.324358227,8.733246438,-1.617285655,2.74058716,-4.477852376
1.870407542,6.192059356,1.400125157,-5.295746583,-4.22034224,-7.495928778,-7.344005752,-14.40252672,-19.99666585,-20.58031984,-13.56800496,-6.292424003,-7.956931387,-1.025732928,4.80845435,6.286713854,-3.334101795,1.419064871,-4.34057823
3.339016662,6.35936691,3.311779791,-15.04181065,-3.630443419,-7.201864572,-5.086821466,-10.95377778,-17.06851443,-17.99167748,-10.08437724,-1.726624541,-3.967117769,-0.314038136,4.098989141,4.624907303,-4.62078922,0.518663603,-3.679394868
4.31774533,6.190018457,4.506787631,-20.84790221,-2.494167775,-6.58810813,-1.035976906,-5.482542811,-8.978356968,-11.68771501,-1.932880348,6.285738037,2.182346986,2.277892437,3.840245639,3.782776328,-4.66983795,0.419487364,-2.252329378
5.246789039,5.416525649,5.084096821,-20.09796581,-0.564741473,-5.697198635,3.14146936,-0.03945251,0.299292713,-4.197458075,6.861378272,14.12374311,7.730840616,5.828041601,4.468023804,3.439170263,-3.430644702,0.884949292,-0.26709704
6.190362562,3.906233635,5.079559139,-14.55324168,1.693977081,-4.708815574,5.748385594,3.410001357,6.328042871,1.430756857,12.05785684,18.40071542,10.34830736,9.180065042,6.042411067,3.093894363,-1.70238192,1.136509939,1.61962387
6.75207361,1.808314816,4.369218367,-8.286534747,3.468574502,-3.796726612,6.269569381,4.232409591,7.153250151,3.614037951,12.16594691,18.34558981,9.865363933,11.6737755,8.278132226,2.406192663,-0.543318541,0.410202899,2.649817017
6.427590277,-0.469836674,2.786727518,-4.129320908,4.213044559,-3.018843486,5.698263447,3.419143743,4.32378028,3.081676983,9.279843209,16.1366983,8.357939942,13.33487165,10.70984005,1.398511482,-0.493132879,-1.448003194,2.423632285
5.06094878,-2.467408607,0.363920961,-1.683230031,4.014851816,-2.326050591,5.730778164,2.748010951,1.427229199,2.070896314,7.273290857,14.99970054,8.502121181,14.49556088,12.8709595,0.35195787,-1.251519267,-3.83956055,1.137350395
2.999733576,-3.930054336,-2.525516534,1.517978869,3.431824118,-1.672048572,7.441264081,3.462505685,1.389269087,2.55810177,8.852582486,16.65819112,11.47812186,15.27322586,14.39643361,-0.493801584,-2.048566563,-5.84639382,-0.56715835
0.829266018,-4.937979285,-5.272931303,6.885133058,2.967209113,-1.124664943,10.43056487,5.434389824,4.543214157,4.843104273,13.7131817,20.15998733,16.0390585,15.38265868,15.04259245,-1.147376998,-2.343412611,-6.887103257,-2.011064894
-1.057426666,-5.789548992,-7.332628187,12.59469546,2.638959589,-0.884829811,13.06410523,7.365153179,8.71488106,7.453852798,19.03242349,22.88289886,19.41854297,14.40481258,14.67859668,-1.7897244,-2.224657568,-7.064103407,-2.830407043
-2.664015968,-6.700333048,-8.478671229,14.46098517,1.99995045,-1.19927264,13.58609507,7.788128821,11.00101895,8.330911789,21.67320833,22.72352222,19.31526136,12.22067784,13.29891392,-2.503345884,-2.183375512,-6.936562126,-3.032767827
-4.200890785,-7.52988732,-8.81677881,9.327729635,0.575634009,-2.232361797,11.26922605,6.075437829,9.779886644,6.353092389,20.28277502,19.60676634,15.4179385,9.20160572,11.0530628,-3.084838992,-2.511747973,-6.93854771,-2.784416836
-5.70138308,-7.759835729,-8.561429242,-1.802020382,-1.662286472,-3.976985458,6.795413278,2.735355215,5.552672338,2.104349871,15.80213752,15.18647874,9.396653278,5.999183944,8.246475554,-3.14059468,-2.919892374,-6.95213013,-2.173447655
-6.827750981,-6.787414721,-7.80015934,-13.62999899,-4.187997638,-6.236061014,1.690730616,-1.108842234,0.259556747,-2.594366532,10.32204543,11.22113193,3.542420091,3.144985228,5.278390099,-2.391864798,-2.754117133,-6.399550518,-1.182000679
-7.081140077,-4.366517629,-6.479767908,-19.81293312,-6.269422162,-8.653674807,-2.666997203,-4.547966893,-4.168597414,-5.965224523,5.474660384,8.174705229,-0.764427104,0.818754719,2.537215682,-0.906974962,-1.632213014,-4.768328385,0.125258868
-6.256388341,-0.890581003,-4.637251549,-17.26520736,-7.4849665,-10.76967957,-5.7199422,-7.3571726,-6.895462117,-7.418691913,1.662415159,5.232290072,-3.603267468,-1.043432655,0.315700245,0.962796792,0.096767554,-2.114864578,1.419292623
-4.736298548,2.714975635,-2.643822753,-8.288230589,-7.990371343,-12.10592009,-7.692726517,-9.8191092,-8.281188654,-7.792168646,-1.523551689,1.540638415,-5.857239257,-2.46066036,-1.207569935,2.889971204,1.530001053,0.885449906,2.173806907
-3.324917824,5.468139331,-1.171427597,1.048165707,-8.327475236,-12.30892878,-9.055185177,-12.16779863,-9.209362858,-8.593755657,-4.402188751,-2.630321467,-8.120775696,-3.261604079,-1.937195991,4.829416528,1.92174155,3.388611945,2.004679835
-2.696863835,6.884338886,-0.808071926,5.002500945,-8.937546505,-11.33034075,-10.03133603,-14.19171591,-10.31618221,-10.84037848,-6.775878523,-5.966501956,-10.17290631,-3.254431825,-1.848754097,6.969642921,1.324738123,4.964284906,1.036265311
-2.874735918,7.2377798,-1.575487162,1.694954931,-9.771109041,-9.548519449,-10.54157207,-15.33277629,-11.65302373,-14.30069201,-8.280854436,-7.366128082,-11.38292673,-2.563705378,-1.04729797,9.400817433,0.582151796,5.841848483,-0.02640869
-3.155083244,7.33756076,-2.755023588,-6.333537221,-10.29934057,-7.704612746,-10.50972281,-15.15836128,-12.83310846,-17.62097841,-8.980562176,-7.156752879,-11.53799948,-1.792809702,0.132517569,11.80231359,0.633220886,6.638843308,-0.239769033
-2.570871554,7.954830749,-3.243663729,-14.54505653,-9.911773037,-6.605329461,-10.13893192,-13.77004546,-13.36746107,-19.19917837,-9.462413322,-7.043792759,-11.24140865,-1.787294997,1.092593816,13.46498985,1.695046328,7.810800268,1.023315656
-0.569830749,9.285853224,-2.258220656,-19.63633892,-8.389833132,-6.70462379,-9.832353347,-11.79030822,-12.91012993,-18.19757424,-10.27199549,-8.710396798,-11.47794615,-3.106693278,1.109825028,13.68373728,3.013099605,9.266137089,3.684377543
2.573590861,10.81909707,0.099539136,-21.11644994,-6.098711743,-7.802448357,-9.807478365,-9.937903141,-11.35749204,-15.03439379,-11.25939836,-12.2540174,-12.72916137,-5.575780322,-0.35066739,12.22642319,3.410865514,10.42779855,6.998128552
5.890724892,11.6935485,2.846917695,-20.42078142,-3.761566954,-9.075923212,-9.76988463,-8.535520205,-8.887468055,-11.06441251,-11.56495511,-15.86705763,-14.43203946,-8.256597108,-3.286455715,9.501988349,2.203777997,10.65341038,9.965654119
8.275106884,11.28723761,4.72139773,-18.82915048,-1.989431025,-9.472420872,-8.986000842,-7.324881278,-5.963198299,-7.689710966,-10.36745746,-17.12060981,-15.26880819,-9.884542826,-6.984869324,6.294562446,-0.259806118,9.662613831,11.81134956
9.060751223,9.613856102,4.961991009,-16.23073665,-0.906827515,-8.259516923,-6.753866527,-5.701425685,-3.207612703,-5.49650027,-7.733123094,-14.80802273,-14.05623949,-9.488346493,-10.17421304,3.291413062,-2.854036636,7.662715086,12.21486896
8.254519697,7.254043327,3.718144757,-11.73888917,-0.128508694,-5.409977531,-2.920603011,-3.163748692,-1.088999375,-3.977682322,-4.71152333,-9.793748421,-10.51333409,-6.813101836,-11.47254754,0.793368625,-4.494451816,5.141849275,11.2270276
6.345981826,4.899476661,1.820898166,-5.345608855,0.91473168,-1.59370535,1.959867807,0.348908551,0.440759172,-2.003093,-2.458374799,-4.157108189,-5.330827091,-2.339802336,-9.931014295,-1.182873583,-4.8460547,2.558421534,9.053813621
3.918870455,2.878581285,0.137595997,1.157574724,2.542671698,2.203998513,6.952582825,4.427142089,2.056473321,1.303759092,-1.079342513,0.610335827,0.423384404,3.021944962,-5.40679975,-2.557952505,-4.379546696,0.188261988,5.948562051
1.373782838,1.038387713,-0.96944607,5.073271349,4.586448765,5.186857359,11.29739297,8.429072117,4.724590534,5.9004601,0.755380336,4.782550949,6.005578971,8.322326818,1.404752013,-2.961634963,-3.804241296,-1.797997788,2.281643077
-1.088336011,-0.932234424,-1.684368881,4.895656626,6.49860151,7.06624712,14.78030461,11.79462369,9.068039857,10.84274678,4.946376475,9.92985424,11.24298257,12.83340465,9.260488733,-1.871549283,-3.412843526,-3.1756808,-1.362761216
-3.314263121,-3.016914399,-2.321491862,1.813168297,7.7237514,8.03388153,17.67537724,14.25855927,14.86391471,14.96550945,12.41385674,17.20879029,16.22718387,16.13452732,16.80174236,0.970404244,-2.897137806,-3.632967024,-4.267213012
-5.089059167,-4.653810111,-2.877588557,-0.817125828,8.065687933,8.468183233,20.35258006,15.89030624,21.05847455,17.71235521,22.05121759,25.88719438,20.83657334,18.08817063,22.90949957,5.210285136,-1.747146362,-2.936618158,-5.876772732
-6.197274678,-5.02118556,-2.986269164,0.17658224,7.792703583,8.613966702,22.87742682,16.97849329,26.30139513,19.46456171,31.03987543,33.38474988,24.55451292,18.77537004,26.85803271,9.901289399,0.160559437,-1.173626867,-6.115681406
-6.594858414,-3.658129699,-2.331475175,5.344625795,7.405601561,8.453612938,24.88730527,17.81503282,29.60084699,21.08272225,36.35443462,36.84252359,26.71599316,18.40304998,28.29301995,13.88792469,2.313744426,1.139589565,-5.45576838
-6.511173577,-0.948779497,-1.136898593,12.01372917,7.232645489,7.820416169,25.78997764,18.45808397,30.63595312,22.99478245,36.41020792,34.99419841,26.9146328,17.18122425,27.16063626,16.27445547,3.859660861,3.202671462,-4.635367296
-6.348427798,1.952569634,-0.229346723,16.06859679,7.151251272,6.62603299,25.10637074,18.59493818,29.59205971,24.57339426,31.76670225,28.92520937,25.20367286,15.2210712,23.70299748,16.67901261,4.180791125,4.276604366,-4.204572707
-6.416188624,3.786849377,-0.502351367,14.84154208,6.664783136,5.011382186,22.73232543,17.63745528,26.80342886,24.38994601,24.56675663,21.26196622,21.97734001,12.54626679,18.53240151,15.2065589,3.282740478,4.042220186,-4.220606527
-6.687137791,4.023161312,-2.130598543,8.984161027,5.315324699,3.312931929,19.00803909,15.08493435,22.60664073,21.27480751,17.28403883,14.5597778,17.73543319,9.251205336,12.68363127,12.31480572,1.730330994,2.778175454,-4.304137694
-6.765757631,3.265362011,-4.171423576,1.967956515,3.150295552,1.88512685,14.62111575,10.98758343,17.51839631,15.43194053,11.67048034,10.12923871,12.99431065,5.697945793,7.506014782,8.763296008,0.260088451,1.263139285,-3.986134106
-6.118872681,2.900326426,-4.971932627,-2.363501056,0.876527501,0.918431933,10.41708297,6.181146017,12.44268712,8.703649934,8.401680529,7.963919923,8.373774272,2.550182868,4.329283381,5.627087719,-0.582372198,0.438449425,-3.0614348
-4.432605658,4.179439704,-3.212055238,-2.357395583,-0.480592006,0.377019777,7.16098722,2.02221545,8.505644476,3.640474835,7.280667554,7.434305937,4.630684846,0.521680113,3.98186037,4.158252203,-0.547628684,0.971509636,-1.692612826
-1.867213177,7.335065597,1.102700815,0.607836333,-0.243600645,0.078607253,5.278334085,-0.327917163,6.456719549,1.926367923,7.562724354,7.907885968,2.422068603,-0.053266159,6.370569417,5.332125152,0.408996592,2.910210331,-0.236881588
0.95783883,11.32854508,6.419090733,3.49370151,1.369117486,-0.161805008,4.654991677,-0.644819772,6.065347833,3.258361938,8.168736813,8.806537146,1.878657039,0.479785214,10.36143966,9.220830404,2.189781549,5.601221924,1.00965825
3.246449446,14.40358097,10.40328711,4.031897127,3.235040064,-0.429669555,4.63439074,0.140751482,6.097686696,5.521418736,7.914501333,9.35689457,2.359739664,1.204601672,14.09651911,14.62551242,4.473044145,7.94681646,1.930610715
4.409494314,15.08011016,11.23430153,2.347766104,3.937511398,-0.702435894,4.306343433,0.496994614,5.062658922,6.182386104,5.948225003,8.640013937,2.719042303,1.155981091,15.67878473,19.36694894,6.617705436,8.909368056,2.521790648
4.327112538,12.94971681,8.595820409,0.605611047,2.633552158,-0.908618004,3.005589408,-0.687476341,2.262782121,3.931898768,2.280277231,6.165490222,2.01512978,-0.072990827,13.95422531,21.23164927,7.783245972,8.013965955,2.777028333
3.348954946,8.803473209,3.752660447,1.032635917,-0.39530287,-0.988465239,0.745472957,-3.314430209,-1.651519618,-0.577154448,-2.024476839,2.503136055,0.178109791,-2.073571101,9.029945446,19.07973587,7.318056751,5.561700143,2.68783015
2.052912576,4.090823828,-1.275788116,3.886999122,-3.894031471,-0.912196162,-1.718199849,-6.110697356,-5.09921806,-5.360112707,-5.322732229,-0.751118697,-1.905256236,-3.919827457,2.257527559,13.43859326,5.175334752,2.415196679,2.358083128
0.920974546,0.126165822,-4.853872852,6.954215474,-6.394132502,-0.663934449,-3.290151222,-7.499841855,-6.668239331,-8.542467889,-6.349515124,-1.893500244,-3.009498339,-4.819123041,-4.341787603,6.207345958,2.003663427,-0.512608352,2.066160201
0.123472179,-2.453336873,-6.456760261,7.006419245,-7.067180167,-0.230260822,-3.179290101,-6.695476639,-6.04200369,-9.49413268,-4.988027858,-0.301728143,-2.452133561,-4.640131663,-8.947302267,-0.326113039,-1.223705319,-2.729988695,2.118299527
-0.482846135,-3.73401497,-6.628461941,2.199597722,-6.104547172,0.383796447,-1.363552918,-4.216726367,-4.032860035,-8.865019601,-2.240939634,3.077471208,-0.568494316,-3.934635256,-10.67516246,-4.531464613,-3.795732483,-4.289452959,2.545592687
-1.179872521,-4.199881085,-6.364211227,-6.328757016,-4.414778822,1.130404035,1.438208078,-1.452128016,-1.748730518,-7.658663944,0.587394545,6.405421394,1.581040401,-3.457506707,-9.813591508,-5.956244354,-5.617177565,-5.516352643,2.911637358
-2.177263667,-4.355875318,-6.437791023,-14.8608279,-2.925580751,1.927121923,4.257261757,0.382558438,0.354424278,-6.238279004,2.822884128,8.28368087,3.026459179,-3.569535074,-7.46329391,-5.157837723,-7.056145397,-6.600536709,2.488564056
-3.506750345,-4.540854744,-7.102240483,-19.29632073,-2.031644907,2.713310077,6.471463782,1.094233877,2.708717031,-4.133477917,4.697354734,8.663341837,3.579002154,-3.980708481,-4.82353786,-3.144442861,-8.436677869,-7.404767764,0.780393528
-5.067091192,-4.938782778,-8.221309426,-17.67366757,-1.558979083,3.516779757,8.089592828,1.539856095,5.985386654,-0.756148114,6.793607028,8.618334674,3.877879538,-4.007843464,-2.557458035,-0.87058302,-9.631213363,-7.642967056,-1.963510518
-6.748253084,-5.63538558,-9.566174167,-11.29910049,-1.175902759,4.461658252,9.556100333,2.851301937,10.1931631,3.692670591,9.249607595,9.258235866,4.808100736,-3.116979943,-0.596636344,0.978717869,-10.11674489,-7.245363253,-4.689965747
-8.512057444,-6.597791351,-10.97338073,-3.730182362,-0.834027821,5.678433621,11.26940776,5.489239251,14.39525457,8.020697891,11.53064414,10.78398315,6.790911684,-1.320930347,1.552116862,1.999209383,-9.444188572,-6.546522712,-6.094579072
-10.35526827,-7.605123847,-12.27751053,1.647277863,-0.842778063,7.156177682,13.19947333,8.853342083,17.36003674,10.81728643,13.01951317,12.50227915,9.494634116,0.850177973,4.261635584,2.082243886,-7.696376031,-6.07618747,-5.465782924
-12.18688401,-8.254459367,-13.17318655,3.742423142,-1.530598041,8.644790382,14.88102867,11.70579572,18.59419905,11.58450811,13.83863287,13.69246749,12.12109422,2.735546998,7.402065825,1.496614218,-5.511383024,-6.091441681,-3.217648706
-13.72836229,-8.106349213,-13.21025497,4.124009071,-2.816405384,9.708597181,15.7556224,13.03059834,18.81336507,11.2382985,15.00723284,14.4219608,13.95840924,3.957457183,10.37949637,0.887046815,-3.629276268,-6.251232185,-0.678807508
-14.53353816,-6.882683403,-11.96725235,5.455514417,-4.092045231,9.939874273,15.58525056,12.66141807,19.365714,11.47839089,17.60634489,15.47914175,14.74638765,4.560331484,12.53728783,1.016904541,-2.346046209,-5.755550682,0.764905119
-14.1369641,-4.551626545,-9.257005261,9.225729369,-4.545282786,9.219629346,14.64205396,11.26237414,21.0578933,13.47521351,21.60357023,17.47148641,14.65174772,4.833789165,13.60300956,2.30917644,-1.348346572,-3.896197332,0.58260761
-12.24797593,-1.226833771,-5.184673375,14.48375572,-3.676017414,7.853633452,13.57120976,9.784209032,23.40969393,16.92681333,25.46261055,19.99160489,14.01831559,5.030172637,13.84907128,4.502280258,-0.071937181,-0.60601786,-0.590335815
-8.883216055,3.003956535,-0.029854965,18.50295893,-1.601158385,6.469262689,13.05040733,8.880700407,25.03796127,20.26797373,27.10257865,21.75364826,13.1924448,5.223773674,13.8661567,6.751873713,1.734840897,3.434259113,-1.463652276
-4.382809269,8.108655119,5.89486018,18.83371326,1.067654201,5.705544929,13.46101969,8.68933647,24.88546437,21.87405894,25.57944521,21.7018153,12.53407202,5.380614994,14.1415638,8.201518671,3.744253987,7.226487098,-1.040140735
0.66833432,13.90004923,12.23236698,15.16511668,3.630381711,5.868004421,14.71719734,8.991648455,23.2206133,21.27619208,22.07919146,20.10811175,12.44445524,5.500489249,14.76313945,8.644182577,5.319637248,10.08068785,0.700094424
5.556964735,19.73430956,18.40873902,9.588561647,5.633519952,6.75317384,16.27600028,9.455950009,21.46507232,19.39217714,19.21760711,18.55565281,13.18900189,5.648465626,15.44265256,8.754007249,6.085601593,11.93640785,2.860534981
9.560443741,24.42864909,23.49849452,5.099071273,6.889140798,7.748163003,17.28877179,9.698839743,20.90018697,17.59984134,19.00871353,18.63846064,14.54349916,5.835734355,15.78510401,9.64399958,6.286230841,13.14162723,4.340769903
12.07105103,26.6033406,26.36114493,3.512655071,7.252249017,8.144581528,16.86413914,9.201390604,21.32818523,16.45182761,21.07528413,20.40985372,15.59381317,5.886931256,15.54719957,12.011672,6.593467699,13.91101623,4.627603998
12.72989173,25.32898156,26.08255005,4.375955277,6.458441819,7.484838437,14.4168323,7.347275744,20.91197991,15.13644638,22.64827388,21.98223625,15.03247765,5.465345301,14.67641513,15.47471163,7.50263065,13.95239375,4.07171961
11.53281894,20.67045118,22.47240411,5.608276513,4.250531705,5.758084283,10.01111642,3.756350855,17.49805771,12.16742961,20.54953536,20.80756139,11.93147986,4.283853759,13.14886678,18.59417891,8.81753475,12.59807248,3.489512565
8.836242342,13.72368885,16.25462262,5.240888602,0.717323571,3.370718304,4.516824892,-1.257026326,10.46923878,6.753510249,13.72615799,15.73667007,6.510709021,2.345263067,10.8223448,19.60547431,9.668770955,9.34106088,3.455852869
5.220390414,6.074444752,8.767139604,2.818900238,-3.483084676,0.948420926,-0.598811277,-6.522535105,1.636238785,-0.282327532,4.355689551,8.196402908,0.289084439,0.008093026,7.508602365,17.39024607,9.076063833,4.331471921,3.859902502
1.2601179,-0.972968935,1.340980994,-0.57161698,-7.294447276,-0.904572086,-3.848099603,-10.43997011,-5.647577676,-6.811566508,-3.420702009,1.440057053,-4.619151303,-2.187500234,3.251703902,12.08312903,6.626734831,-1.573897364,4.044195585
-2.663856826,-6.877718076,-5.225789134,-3.474304664,-9.782233318,-1.784916142,-4.415269763,-11.82670075,-8.584496914,-10.72433606,-6.249173314,-1.642742732,-6.670627116,-3.798292745,-1.428944495,4.988837129,2.761036188,-7.240705256,3.36722017
-6.391103225,-11.76063103,-10.75466748,-5.275796111,-10.63566096,-1.573409484,-2.56513794,-10.61738882,-6.706888297,-11.24837709,-3.753587456,-0.490080134,-5.745233936,-4.645530724,-5.595249003,-2.056903308,-1.516137571,-11.81531902,1.715597304
-9.839376424,-15.87337149,-15.33154819,-6.389998877,-10.26056646,-0.438039885,0.512159074,-7.875342386,-2.020031428,-9.270751623,1.430255023,2.897871699,-3.100404594,-4.767527818,-8.285989218,-7.455102979,-5.229415398,-14.99567222,-0.423147246
-12.82570595,-19.10949232,-18.84878123,-7.37550276,-9.384567596,1.223659825,3.358291948,-5.06287076,2.54154743,-6.487847636,5.692052518,5.579449932,-0.482358422,-4.250922006,-8.998362852,-10.34637531,-7.869591656,-16.87903858,-2.334724569
-15.02102871,-20.9587204,-20.84651284,-7.979747167,-8.490415336,2.901545876,5.010097406,-3.090599785,5.12839263,-4.124721644,6.923252108,5.822417468,0.956556202,-3.133304334,-7.901040148,-10.71115454,-9.402822349,-17.61125908,-3.559496404
-16.10269438,-20.91558655,-20.78979078,-7.178311976,-7.531993262,4.142248238,5.400043747,-1.848302573,5.960099133,-2.235837559,5.599027848,4.122878523,1.192074331,-1.479541054,-5.620681148,-9.16976994,-9.967293905,-17.18493741,-4.103221288
-15.99571125,-18.97126846,-18.5447942,-4.300256949,-6.144820528,4.723065978,5.178008172,-0.544055566,6.665052598,-0.045788936,3.862455789,2.434145512,1.028900269,0.458154931,-2.787457743,-6.659599373,-9.607989245,-15.53825985,-4.268902628
-14.99871387,-15.75964681,-14.64620941,-0.183385947,-4.140599963,4.744032927,5.136931738,1.461372632,8.665293633,3.085221407,3.593523568,2.405792421,1.308671955,2.194611772,0.277350033,-4.110044884,-8.303379683,-12.80169925,-4.325591833
-13.66493412,-12.23311973,-10.11723568,2.915432219,-1.833245295,4.568666308,5.67455287,4.021689911,11.96435191,6.945106746,5.09623951,4.128671414,2.270250861,3.19224575,3.480864371,-2.176988671,-6.225806479,-9.417056594,-4.331881133
-12.50149363,-9.141469406,-5.967442308,2.909211873,0.108425555,4.626230698,6.64786161,6.285012152,15.24566869,10.57702576,7.314388428,6.304759641,3.493970461,3.169053693,6.598012437,-1.100203651,-3.94245338,-6.007451415,-4.245304691
-11.70387943,-6.735300572,-2.745591334,-0.209975638,1.171858899,5.18275799,7.651886922,7.399787428,17.06209039,13.0364073,9.112526414,7.496069185,4.35529761,2.293318178,9.024745588,-0.750892848,-2.307638249,-3.130562266,-4.159946948
-11.12208131,-4.893782581,-0.458676964,-3.864479175,1.439257288,6.217031374,8.439950752,7.244745657,17.04537916,14.09096755,10.33427191,7.269143493,4.543524729,1.089771079,9.972905722,-0.856378991,-2.064170414,-1.137297478,-4.387568814
-10.46925905,-3.488820396,1.14873323,-4.535551672,1.559883291,7.468481669,9.13250204,6.568454107,16.14644991,14.27029164,11.71335239,6.301605086,4.234419405,0.110080282,9.047056167,-1.246261708,-3.419161949,-0.201303901,-5.243635802
-9.585201741,-2.593039261,2.252000493,-0.499357581,2.245663947,8.604287387,10.06559138,6.414093882,15.78477498,14.28334943,13.84294502,5.530495545,3.852364015,-0.383594986,6.753196964,-1.900243302,-5.883248556,-0.362841992,-6.686054749
-8.52549747,-2.303108479,2.855850651,6.529949246,3.68346517,9.377086344,11.42705168,7.287448686,16.67152426,14.36864734,16.2615609,5.245813669,3.691047765,-0.483236811,4.449757027,-2.712027639,-8.46501991,-1.404288401,-8.125631803
-7.404226158,-2.339619102,3.009791193,12.39613931,5.342941585,9.673787502,12.98540101,8.728487726,18.26425389,14.15536155,17.56291216,4.964680966,3.718944889,-0.421215917,3.641844972,-3.157003514,-10.07827772,-2.606789423,-8.626885926
-6.143837922,-1.8485177,3.080459335,13.63008321,6.351130568,9.462677905,14.13085733,9.620625902,19.22757571,13.12109255,16.47900257,4.108564016,3.682426166,-0.284702421,5.051315409,-2.229318105,-9.932142087,-2.701807506,-7.420829326
-4.386380245,0.285688449,3.757614775,10.35107624,6.153879531,8.734918264,14.2088616,8.99628842,18.46156854,11.19758779,13.00615189,2.747831205,3.360703185,0.082034712,8.129864364,1.115926756,-7.76026928,-0.314279002,-4.398153969
-1.701129919,4.724912681,5.6939948,6.514293885,4.95458261,7.526958747,12.92209774,6.732858667,15.88278055,8.969531762,8.604565986,1.66227519,2.740748149,0.898864155,11.3975354,7.183160984,-3.881716412,5.183167178,-0.246105797
2.025199983,11.04935296,9.008547916,7.022515188,3.592558857,6.010468497,10.54157248,3.643708079,12.43285535,7.296654543,5.290109313,1.654562998,1.995711673,2.1511949,13.38136621,14.95697154,0.860063525,12.93919203,3.862545932
6.305109951,17.71287171,13.03268926,13.72950004,2.952391769,4.540101831,7.79764587,0.932730718,9.418420998,6.694495236,4.331712434,2.764658595,1.32285183,3.435701605,13.47391293,22.24961735,5.273202914,20.64950104,6.818671812
10.11693319,22.68614725,16.51883133,23.42430304,3.341346981,3.554985266,5.511330961,-0.577919716,7.716823909,6.985366937,5.517789129,4.108345734,0.774689356,4.096357608,12.10021813,26.64050759,8.132709212,25.53327542,8.023038579
12.32538829,24.40090463,18.19257713,29.54933395,4.276887296,3.347972843,4.161662615,-0.930517783,7.342342668,7.455661652,7.424211486,4.471258588,0.177050965,3.561389579,10.12921907,26.67595312,8.594498505,25.75342656,7.505889832
12.21067291,22.40407416,17.29304897,26.61144729,4.810284981,3.852351453,3.614332836,-0.959198912,7.515549669,7.316968527,8.336968093,3.118934678,-0.841699883,1.642545766,8.055267998,22.54393458,6.542668782,21.36739993,5.743505973
9.788141637,17.36399742,13.7926389,14.14040534,4.134509519,4.624384767,3.166464001,-1.770489365,7.072864685,6.073304714,7.118679262,0.154792042,-2.711525211,-1.388316847,5.63196251,15.77235821,2.655108677,14.15717761,3.370744203
5.748939474,10.54083924,8.254519775,-2.706316897,2.062038621,5.077978283,1.92166984,-4.115785898,4.990561431,3.587255778,3.562940203,-3.758015214,-5.680086321,-4.94098661,2.24106604,8.197111447,-1.904779231,6.465972611,0.976112469
1.097566724,3.163543419,1.532588261,-16.35587576,-0.904196454,4.838726304,-0.661472542,-7.98247356,0.878572096,-0.022300662,-1.712729442,-7.911608222,-9.53819476,-8.316616381,-2.342719678,0.968955439,-6.02544321,-0.125193631,-0.980575198
-3.275884508,-3.890473408,-5.453646437,-21.54583211,-3.888512934,3.978948283,-4.337477075,-12.56380063,-4.680297427,-4.391713463,-7.536114868,-11.79206912,-13.48308585,-10.85296277,-7.460767669,-5.705843589,-9.100540786,-5.37323407,-2.211804679
-6.867129922,-10.05077463,-11.81067252,-18.25997702,-6.104815149,2.966378738,-8.049497092,-16.58893381,-10.14480293,-8.78296789,-12.46710067,-14.94714603,-16.31890444,-12.00800217,-11.7932646,-12.01280023,-11.13656619,-9.908986302,-2.680854532
-9.594068183,-14.88900188,-16.74627542,-11.02677934,-7.192353763,2.361230399,-10.41383429,-18.87162708,-13.56524121,-12.06368726,-15.20197255,-16.85378305,-17.02693563,-11.47698237,-14.14394976,-17.74356635,-12.49966154,-14.24789886,-2.674757869
-11.66025872,-18.10014632,-19.73999129,-5.430330521,-7.28740453,2.475899682,-10.49671744,-18.85738876,-13.5726579,-13.07660437,-15.14851651,-17.14583239,-15.42897192,-9.376742801,-14.17614824,-22.01530059,-13.5366689,-18.13876121,-2.7486706
-13.35670582,-19.65417201,-20.74629168,-4.530629538,-6.857230707,3.229619143,-8.415983882,-16.91251056,-10.29014234,-11.33176857,-12.88877059,-16.06940843,-12.46272597,-6.373525669,-12.53802854,-23.76726074,-14.36006292,-20.74625105,-3.474837187
-14.8819815,-19.89714049,-20.22419798,-7.59034413,-6.417058211,4.275300467,-5.332085958,-14.16027709,-5.473567155,-7.53218454,-10.03540183,-14.59991212,-9.737790446,-3.554577451,-10.31645411,-22.61462622,-14.91089943,-21.41882011,-5.096785097
-16.22091227,-19.38552246,-18.85943049,-11.51152162,-6.265261536,5.272696379,-2.757184202,-11.87982433,-1.566168705,-3.392256706,-8.288838801,-13.82518164,-8.53429486,-1.9747268,-8.284766532,-19.30970647,-15.16731929,-20.31214815,-7.320622406
-17.11670397,-18.49751554,-17.11016892,-13.40483812,-6.346233348,6.089906483,-1.597347109,-10.77135103,-0.137602568,-0.684842271,-8.197474629,-13.92292501,-8.900947703,-2.07866045,-6.527863244,-15.37415211,-15.26014098,-18.31131129,-9.431593363
-17.1727553,-17.13212992,-14.92667826,-12.24720461,-6.305570399,6.79840939,-1.591071244,-10.5543239,-0.782088398,-0.116040869,-8.594475104,-13.65725366,-9.56586363,-3.380274002,-4.66467434,-12.15604548,-15.37147383,-16.33985454,-10.70608218
-16.07457409,-14.80537213,-11.92634193,-8.751933136,-5.725940889,7.506417868,-1.580066495,-10.21577242,-1.388212466,-0.890430047,-7.364357561,-11.10034185,-8.844866088,-4.679289258,-2.377787384,-10.04555035,-15.51120018,-14.68041718,-10.85438727
-13.82891514,-11.14253387,-7.946487616,-4.172936979,-4.427236149,8.199930099,-0.45529577,-8.7925098,0.25990645,-1.381442283,-3.169982942,-5.273000795,-5.957753023,-4.741469192,0.256351182,-8.445695117,-15.38860322,-12.89490379,-10.17258809
-10.8544387,-6.397026698,-3.529052083,0.597020593,-2.641433064,8.733427096,1.912167729,-6.146629341,4.664280188,-0.453622673,3.153986555,2.572671712,-1.757756483,-3.019551026,2.900292799,-6.462265814,-14.51750504,-10.37569859,-9.27263022
-7.814378853,-1.533744399,0.142523028,4.969949431,-0.915237027,8.966997461,4.48553789,-3.135697137,9.999002193,1.598038325,8.789255511,9.279025807,1.763292411,0.066157964,5.356003538,-3.692154128,-12.49219819,-6.994044395,-8.572588709
-5.255794979,2.280267915,1.938051444,8.160697674,0.2313405,8.913752947,5.814169855,-1.000418062,13.30235351,3.286461666,10.80227105,11.77775249,2.912279498,3.464547649,7.786044088,-0.450188947,-9.231208487,-3.244595856,-7.927950722
-3.291248913,4.451586238,1.645404283,9.207374237,0.661446064,8.753295792,5.178411604,-0.411299234,12.67905085,3.209047518,8.382082358,9.360942955,1.60937581,6.18015446,10.48969184,2.695925779,-5.024568018,0.231105514,-6.704696246
-1.573290485,5.409039015,0.304786618,7.802397285,0.707495531,8.685883494,3.226216608,-0.936760554,8.835065969,1.334473365,3.659437424,4.389838519,-0.475029253,7.802493307,13.4099543,5.58336378,-0.389734266,3.268917309,-4.277600766
0.378551742,6.325918281,-0.366905903,5.140312467,0.876852439,8.743261912,1.544664374,-1.410963896,4.673279222,-0.809367536,0.294232825,0.69155342,-1.151930157,8.52666541,15.8412577,8.630966136,4.118166089,6.324078923,-0.610427838
2.711524529,8.252219766,0.845763821,3.658576217,1.372138278,8.716684814,1.431435188,-0.962982481,3.143841916,-1.300332813,0.769055086,0.739405171,0.573952856,8.734018977,16.67647491,12.30188554,8.003564579,9.930628843,3.514271679
4.987914798,11.26385023,3.709360963,5.423187055,1.815229532,8.275426815,2.80064301,0.118937493,4.952816018,0.538573274,4.452022774,3.797929665,3.633477076,8.542484926,15.08008583,16.29667364,10.82549839,13.91970492,6.820975754
6.376084134,14.26583305,6.574348373,10.26483354,1.457264554,7.203041782,4.122238585,0.462494665,7.942267221,3.37716936,8.010586363,6.555222306,5.59224293,7.72208895,11.09557894,19.24173918,12.19358613,17.11800341,8.240250994
6.191779303,15.63383295,7.453187087,15.3182718,-0.20987842,5.588987333,3.535220277,-1.311016666,8.727746911,4.719640512,7.965926994,5.80765032,4.453609339,6.025583413,5.723546921,19.29865817,11.85478956,17.89839005,7.528600816
4.417963654,14.27365799,5.419219921,16.69944456,-2.880174513,3.843721399,0.3538806,-5.281348652,5.424726733,2.804561534,3.471780264,1.082185464,0.231515046,3.608569285,0.420141416,15.37512041,9.841931859,15.25437326,5.399916289
1.815956953,10.37233199,1.318790856,12.3127397,-5.380293989,2.524390097,-4.175303227,-9.751663366,-0.615677447,-1.886658267,-2.835388227,-4.907495539,-4.893070083,1.130808038,-3.59330896,8.074815139,6.555713061,9.606439508,3.085393026
-0.483089942,5.331580726,-2.742280167,3.678026324,-6.273397194,2.074624609,-7.500018082,-12.10050012,-5.461849493,-6.74353905,-6.609062251,-8.337639179,-7.960285306,-0.590149548,-5.723305605,-0.361374796,2.676774366,2.715385471,1.615046417
-1.646772401,0.947788936,-4.788449723,-4.764754263,-4.760519758,2.62103482,-7.389514559,-10.46323432,-5.264361109,-8.776870133,-4.867266718,-7.200912255,-7.147140283,-1.104047286,-5.924606083,-7.166035641,-1.065314836,-3.256602639,1.278701067
-1.620011781,-1.591279079,-4.248888016,-8.520638024,-1.256143449,3.922201607,-3.425646735,-5.062792191,0.986115225,-6.743539193,1.931521642,-2.735804987,-2.843582542,-0.593982631,-4.391415493,-10.49613196,-4.125289333,-6.872715606,1.575997204
-1.094322398,-2.238709599,-2.216047674,-6.002265027,2.792394227,5.48038007,2.695642362,1.799044991,10.61963163,-2.055797214,10.30105563,1.720053607,2.793502519,0.342561255,-1.406898484,-10.28113291,-6.244711759,-7.979969105,1.62702266
-1.001916294,-1.864980205,-0.541633208,0.599212731,5.746239286,6.755618809,8.245830029,7.132930859,18.97978121,2.220574883,16.19782773,3.406090808,7.345031771,1.209628988,2.507900125,-7.974934815,-7.408265239,-7.422882933,0.733461612
-1.88687712,-1.523903141,-0.467873619,7.104697552,6.712948956,7.390077441,11.1409949,9.085949274,22.42827376,3.542112773,17.62452268,2.101314085,9.527154654,1.979087766,6.388601269,-5.486291592,-7.749597583,-6.26901455,-1.262548543
-3.567794693,-1.76101105,-1.797623311,10.31536955,5.958529604,7.352060091,11.05663768,7.953864409,20.54635269,1.632611515,15.50767781,-0.158521251,9.555813826,2.987911196,8.943836899,-4.073255146,-7.504388192,-5.184746158,-3.983474155
-5.287237529,-2.413833243,-3.166270308,9.855109129,4.562261973,6.936358871,9.304850277,5.747529729,16.08353034,-1.456487597,12.45931056,-1.175481941,8.458580775,4.459421366,9.103238331,-3.901257189,-7.011165284,-4.355164216,-6.790259274
-6.215152683,-2.956001028,-3.150113835,7.63677144,3.619685375,6.61033423,7.722817046,4.713418952,12.86298586,-2.948430067,10.64948021,-0.552015841,7.103431599,6.086966307,6.666186499,-4.410252702,-6.67530145,-3.835811276,-9.095718865
-5.963701377,-3.0543277,-1.359400434,5.705488277,3.578045372,6.767834839,7.469756772,5.889264375,13.23957907,-1.375109868,10.50700809,0.19479431,5.771770591,7.09145684,2.525364409,-5.063874772,-6.835557207,-3.897961465,-10.54211522
-4.800278043,-2.901467655,1.266445964,4.470658376,4.12307165,7.513914544,8.548980207,8.636827729,16.84633145,2.431543478,11.05870964,-0.637036504,4.470407384,6.770612073,-1.790816911,-5.864956918,-7.586468646,-5.018281019,-11.02227715
-3.461185869,-3.095485498,3.116560238,2.823441981,4.589221388,8.60441982,10.20616013,11.3110939,21.27724225,6.016033858,11.28913665,-3.038943687,3.46843574,5.120291093,-4.976282138,-7.287542374,-8.693693309,-7.529785741,-10.63233428
-2.710635316,-4.180548355,2.989443536,-0.148085023,4.500451367,9.58329255,11.68371185,12.43347772,23.94908511,7.029020175,11.16715855,-5.055753438,3.38698567,3.000658157,-6.583212869,-9.738609845,-9.693187117,-11.24789528,-9.630683927
-2.914069033,-6.191839232,0.822895371,-3.601960628,3.829383931,10.035674,12.65613777,11.5068661,23.70299022,4.708095894,11.47084279,-4.526925708,4.664833961,1.651202188,-6.983572801,-12.97959637,-10.11711041,-15.38010635,-8.391091288
-3.855956937,-8.523256095,-2.37497224,-5.157514483,2.85657872,9.793589608,13.08580705,9.025211144,21.13598014,0.127019743,12.71347234,-1.295224409,6.888375225,1.87328517,-6.763661778,-15.9314,-9.678966972,-18.7796589,-7.290898468
-4.881898721,-10.20401314,-5.243704997,-2.866443758,1.844355571,8.963180226,12.80741709,5.882132476,17.72072107,-4.778308117,14.27133164,2.150372403,8.690305234,3.48071654,-6.130773271,-17.02299999,-8.293590751,-20.36336888,-6.530484578
-5.274542167,-10.40349062,-6.875292799,2.75814755,0.841284782,7.77534533,11.37003141,2.75107295,14.60765736,-8.537836403,14.58570682,2.355169913,8.478922337,5.432392784,-4.874188903,-14.92236733,-5.973623053,-19.46970843,-5.986426527
-4.659590708,-8.854904482,-7.18021954,8.574364127,-0.242925988,6.396365643,8.374804684,-0.123071408,12.03927391,-10.84601721,12.32722526,-2.340227309,5.537222625,6.547712101,-2.894280676,-9.281828476,-2.771537277,-16.05494691,-5.241020482
-3.224317221,-5.961625429,-6.677996199,10.92149876,-1.417762001,4.860579617,4.034027879,-2.70913025,9.654001951,-12.26882152,7.559560068,-10.20857052,0.655535956,6.270780667,-0.753942215,-1.108631903,1.115105136,-10.73934332,-3.83544065
-1.623317207,-2.557685644,-5.983883416,8.43606822,-2.487678994,3.175809979,-0.587919789,-4.870382072,7.221782189,-13.3924519,1.932319559,-17.09558579,-4.233334162,4.933888589,0.371205809,7.475703506,5.157943147,-4.710684395,-1.617772857
-0.611772299,0.504329044,-5.403050576,3.246908821,-3.146941489,1.492380223,-3.97027128,-6.257313654,5.100409598,-14.19706768,-2.277437108,-19.2749579,-7.202175362,3.375806052,-0.543356215,14.04813715,8.470896493,0.565828879,1.054728482
-0.608421533,2.689907289,-4.870856223,-0.58070026,-3.200399611,0.155924898,-4.967182076,-6.475324501,4.040996778,-14.13919484,-3.566324448,-16.02768428,-7.462421331,2.263680226,-3.45994284,16.92540321,10.1112244,3.843860342,3.434915302
-1.451007661,3.878937024,-4.180886917,-0.252836905,-2.706204548,-0.447156887,-3.495193408,-5.351034163,4.549645347,-12.79088564,-2.060214872,-10.01641511,-5.716868031,1.658479073,-7.0307103,15.90565034,9.597635224,4.63496023,4.785733554
-2.507241196,4.229691311,-3.257130373,3.423587182,-1.921756465,-0.159821094,-0.575357256,-3.084213472,6.357814194,-10.4394178,0.68908911,-5.282505336,-3.561819255,1.120963112,-9.366234333,12.26875852,7.277887178,3.466160622,4.808530157
-3.083855107,3.961259108,-2.256807959,6.528927981,-1.119115029,0.775138027,2.303478537,-0.206787309,8.44276968,-8.114655778,2.71168634,-4.494202614,-2.435202365,0.200252599,-9.347905336,7.980432984,4.202966019,1.598746138,3.808646001
-2.872268899,3.226295084,-1.462321395,5.079109716,-0.440766918,1.808701466,4.052886221,2.592805396,9.614942496,-6.980072313,2.722246198,-7.484350427,-2.842502049,-1.139774143,-7.495691711,4.544928676,1.508052293,0.284617396,2.482725384
-2.131481991,2.141472878,-1.079398025,-1.681774292,0.099413137,2.410197837,4.51064095,4.695499769,9.288644411,-7.510904023,0.710571952,-11.9187221,-4.279086118,-2.500006123,-5.66202767,2.227248492,-0.291247483,0.009727844,1.476230843
-1.482195063,0.898885416,-1.098789651,-10.32084124,0.523388992,2.400649319,4.3433619,5.78655595,7.937745595,-9.03835937,-2.154439615,-15.23394401,-5.723155273,-3.39975439,-5.699219411,0.166570958,-1.557211981,0.257175609,1.015142574
-1.458758928,-0.188250408,-1.305555996,-15.39846104,0.844009609,2.050288004,4.496366626,6.057205687,6.940315293,-9.989304612,-4.116353677,-16.19000445,-6.2423546,-3.657785873,-8.062822772,-2.701373785,-3.121143238,-0.015459844,0.84863317
-2.138587101,-0.791785073,-1.411245325,-13.19944154,1.13470613,1.866604161,5.619198757,6.257193375,7.875040703,-8.704110867,-3.618075002,-15.02062023,-5.337529055,-3.463936452,-11.40715266,-6.597014731,-5.507639819,-1.524371537,0.507195373
-3.107882826,-0.770421605,-1.215841912,-4.258677728,1.624730526,2.231422351,7.805785545,7.447145854,11.63548619,-4.371631436,-0.025649689,-12.51116956,-2.972236937,-3.111062764,-13.50193927,-10.53808806,-8.405392066,-4.077424919,-0.336544364
-3.770465364,-0.305279642,-0.705092008,7.115682184,2.658105464,3.153724057,10.68690488,10.43053989,17.83141624,2.433147809,5.95182125,-9.149743847,0.523233761,-2.674604579,-12.80507349,-12.98673016,-10.82371999,-6.708084626,-1.661084945
-3.756548223,0.165623302,-0.037633997,15.837962,4.458462639,4.3042059,13.67362462,15.11438033,24.81304455,9.895304377,12.39019135,-5.147114447,4.510895079,-1.968515236,-9.536014265,-13.03515976,-11.82941771,-8.4075023,-3.155653324
-3.132783424,0.20011444,0.558178041,19.26371,6.843749352,5.273516119,16.14191895,20.23945565,30.34605382,15.71899305,16.9271235,-1.077070221,8.095820106,-0.836026807,-5.482494814,-11.19517808,-11.27973509,-8.859232464,-4.454246022
-2.288887519,-0.376052782,0.907744871,18.34232157,9.144937795,5.832738095,17.51277434,23.80432116,32.62114486,18.12650515,17.92436729,1.789347843,10.30847606,0.502326386,-2.726794227,-9.11084628,-9.955256403,-8.58747889,-5.348078868
-1.629998256,-1.374062669,0.95513413,16.12438235,10.47406802,6.00004288,17.32381792,24.07425714,31.07867781,16.61309975,15.37870169,2.055359022,10.45778253,1.412137477,-2.256045696,-8.337972611,-8.974577704,-8.419812151,-5.838784378
-1.330020322,-2.389352254,0.734073958,15.04810444,10.22140879,5.898601103,15.37176413,20.60318832,26.60248296,12.09705074,10.93588831,-0.701618743,8.485857011,1.235973987,-3.445359814,-9.09957817,-8.954852048,-8.731138977,-6.042769068
-1.309098919,-3.06756371,0.284828117,15.19081854,8.452590937,5.566884985,11.87001146,14.58404145,20.9817695,6.408363453,6.880065371,-5.328963918,5.064695166,-0.161471061,-4.698143062,-10.00884268,-9.587823649,-9.104300457,-6.062731435
-1.386696361,-3.275066029,-0.390909669,14.71745765,5.910473971,4.90511652,7.47123263,8.234578619,15.96984877,1.400097875,4.715310818,-9.685822154,1.318122005,-2.150829609,-4.671877918,-9.043025653,-9.957775773,-8.678591366,-5.930116865
-1.425233568,-3.050121059,-1.269595398,11.95553401,3.597113461,3.80113411,3.064147082,3.578808777,12.50640746,-1.838526873,4.331753542,-12.06119087,-1.680740838,-3.653295154,-3.159434487,-5.08135638,-9.320617565,-6.877279303,-5.628623393
-1.33290124,-2.409906437,-2.173678595,7.308576829,2.214351076,2.307357309,-0.575428595,1.416795392,10.53987341,-3.261844017,4.370115562,-12.27744184,-3.328442156,-3.827902658,-1.054401458,1.149013398,-7.69696284,-3.902571921,-5.134246864
-0.972069942,-1.225027947,-2.703007597,3.448891093,1.8390571,0.691783571,-3.072015646,1.143447775,9.463152049,-3.550207555,3.486626448,-11.55451226,-3.605603325,-2.626280245,0.438663602,7.452459657,-5.807060826,-0.607245576,-4.417659969
-0.139359859,0.680160013,-2.363590047,3.605746076,2.025058453,-0.699732413,-4.505782861,1.462350655,8.75835783,-3.472535737,1.491691303,-11.27627525,-2.911158546,-0.789382,0.669541052,11.60152078,-4.436181041,2.111002026,-3.424235166
1.281234627,3.252313535,-0.887670284,9.176691804,2.207040755,-1.661339851,-5.237895752,1.406079423,8.342197329,-3.383607306,-0.577786738,-11.7652657,-1.82199018,0.710026978,-0.143850528,12.76106268,-3.788747174,3.8635277,-2.091980248
3.086468225,5.998060783,1.449851538,18.3313879,2.081579595,-2.243218562,-5.668050284,0.901444087,8.388119345,-3.174083596,-1.512204456,-12.15884876,-0.952799357,1.338543563,-1.276166313,11.85732528,-3.376391405,4.834139237,-0.433616139
4.674137457,8.069648023,3.788041658,26.5569964,1.702698034,-2.673050119,-6.09974552,0.525054529,8.846428965,-2.637310996,-1.203584404,-11.48221866,-0.90944355,1.261264226,-2.140986058,10.67725712,-2.512430179,5.372308613,1.373235705
5.271992949,8.661657411,5.036675748,28.83887673,1.283490865,-3.15994437,-6.756135094,0.745541451,9.134022048,-1.904818808,-1.00692904,-9.912898072,-2.197514905,1.006096477,-2.696931553,10.45222591,-0.964838101,5.544439931,2.987216338
4.382477471,7.471652055,4.470985968,22.24376873,0.923854943,-3.754459356,-7.839697857,1.328437138,8.323513665,-1.563201767,-2.790687226,-9.016571731,-5.006571695,0.844598949,-3.362280302,11.02910194,0.804609014,5.070976181,4.042469954
2.135050666,4.892856245,2.182456651,7.5519367,0.508418552,-4.376055695,-9.499886046,1.406359153,5.746997778,-2.324494109,-7.383913187,-10.6178611,-8.979250166,0.439044462,-4.591663851,11.20933039,2.018222225,3.688754677,4.357108198
-0.740816053,1.784883056,-0.948863551,-10.83764959,-0.15912649,-4.957612319,-11.68639635,0.155670052,1.579047996,-4.47896525,-13.67380027,-15.19125449,-13.19116695,-0.914113468,-6.477388953,9.889715131,2.243401502,1.568813139,4.063766824
-3.33995802,-1.021154019,-3.777988602,-26.66599417,-1.131596954,-5.54622262,-14.012309,-2.468607617,-3.046513512,-7.541106831,-19.12034593,-21.14660753,-16.46664193,-3.617674598,-8.64125212,7.0347441,1.760847469,-0.635511526,3.551749278
-5.111854251,-3.131061803,-5.569299729,-34.46864233,-2.216761168,-6.244727492,-15.79134565,-5.527726788,-6.504133227,-10.37285318,-21.33108547,-25.69753267,-17.89836635,-7.232526006,-10.4271065,3.711331129,1.320040843,-2.192429722,3.243010284
-6.11399977,-4.636657714,-6.354823464,-31.98409255,-3.089838302,-7.040134796,-16.30153273,-7.59754436,-7.446242837,-11.73487735,-19.51189694,-26.70976039,-17.2493035,-10.542885,-11.21838278,1.219521611,1.489985003,-2.807903364,3.34870154
-6.817995698,-5.823458271,-6.742584537,-21.20893858,-3.520261993,-7.692880394,-15.15075354,-7.618897728,-5.417816234,-10.92617914,-14.75422322,-24.11731537,-14.97381942,-12.24206003,-10.69571181,0.080169901,2.158754913,-2.801598149,3.767326366
-7.647961059,-6.818640649,-7.35736229,-7.485846903,-3.520103046,-7.828715058,-12.52101948,-5.512785992,-1.00276568,-8.125109997,-9.080070445,-19.83728225,-11.86947633,-11.75659621,-8.951392759,-0.289196199,2.606885134,-2.788866436,4.178450826
-8.631556768,-7.481811983,-8.365919991,3.099525494,-3.297529513,-7.199189128,-9.127235761,-2.172043102,4.500690898,-4.252257997,-4.112409788,-16.30463301,-8.634902816,-9.59986901,-6.46177065,-0.986197497,2.092798837,-3.153452437,4.246083662
-9.430764306,-7.607829961,-9.442325006,6.782745379,-3.066260573,-5.908986093,-5.899209512,1.11317174,9.643276903,-0.472631749,-0.394458021,-14.79366114,-5.642445387,-6.993719611,-3.935483394,-2.652991317,0.460095972,-3.775776823,3.784565361
-9.691208097,-7.22688602,-10.14671152,3.970363556,-2.874139173,-4.405168233,-3.559333115,3.385673258,13.35580948,2.357855693,2.311092085,-14.76454638,-3.01905826,-5.045183115,-2.058391133,-4.933256261,-1.73431045,-4.241863587,2.796272308
-9.384430831,-6.697655121,-10.34446615,-1.282191257,-2.583657285,-3.204141711,-2.318808228,4.45813655,15.27580114,4.011061277,4.280043575,-14.58472328,-0.863278859,-4.084412616,-1.20631958,-6.772722984,-3.664942362,-4.317402019,1.403412362
-8.838848009,-6.472018369,-10.27671821,-3.953438393,-2.004088167,-2.552858239,-1.83684936,4.851420044,15.80005724,4.846191436,5.450340666,-12.91013127,0.65686011,-3.617664046,-1.267490698,-7.27097505,-4.872727619,-4.229559472,-0.235263808
-8.437333936,-6.706953156,-10.22023451,-1.266417989,-1.058168077,-2.291698119,-1.444575422,5.34725613,15.84908852,5.482202398,5.713558564,-9.624129127,1.422005825,-2.860898535,-1.708917461,-6.364070957,-5.559065353,-4.473973131,-1.956832321
-8.254478145,-7.052131445,-10.0596986,5.660885379,0.143477431,-2.035963513,-0.512005538,6.458068113,16.39303944,6.382226157,5.434648613,-5.739603057,1.555601014,-1.389785742,-1.882484425,-4.798659681,-6.301123463,-5.297431624,-3.586370222
-7.958718897,-6.813558208,-9.196268229,12.83609199,1.359043337,-1.535855186,1.217397168,8.10952097,17.91392726,7.572235432,5.514633125,-2.545709975,1.464216819,0.59797722,-1.380325487,-3.461491193,-7.432349719,-6.309141253,-4.943880077
-7.07132326,-5.388281338,-6.93424877,16.35299579,2.342912441,-0.922620781,3.478000519,9.684729621,20.09799494,8.643038722,6.789363634,-0.776279077,1.63298289,2.555815448,-0.18488974,-2.637632317,-8.604993038,-6.57692315,-5.890477447
-5.361430372,-2.640874452,-3.06024444,15.1567421,2.950967251,-0.632874847,5.590202648,10.38969802,22.00857458,9.040612153,9.277600753,-0.370266322,2.316481237,4.102106175,1.489274305,-1.785341968,-8.903311983,-5.159407698,-6.373574461
-3.037844429,1.059298302,1.869215502,11.60138744,3.172837743,-1.06172751,6.780236055,9.741196161,22.71159394,8.482371554,12.02853374,-0.796239942,3.370946075,5.313034176,3.49759392,0.033855409,-7.4418281,-1.671860096,-6.410885905
-0.577044919,5.139820526,6.799268005,9.427820592,3.100695411,-2.219254355,6.557132195,7.902601822,21.9641941,7.230872305,13.80630068,-1.501584406,4.357109569,6.5596592,5.899584619,3.444345559,-4.014872952,3.515977533,-6.011514779
1.653710733,9.190136883,10.81653549,10.7506314,2.870057749,-3.669443128,4.948218155,5.6465084,20.43758878,6.003741722,14.05135417,-2.123840495,4.817394255,8.063688139,8.749194071,8.304981062,0.661941561,9.520338236,-5.115437453
3.638785314,13.07768051,13.65436203,14.41039581,2.595839693,-4.809538339,2.459296505,3.918254083,19.22447121,5.518463951,13.24526198,-2.469112532,4.505316802,9.5859589,11.70191161,13.78891316,5.269473012,15.34587327,-3.646599734
5.600143543,16.73566175,15.66738654,16.98346563,2.313166537,-5.278969466,-0.216893496,3.235481795,18.93616584,5.947134284,12.31753687,-2.49239796,3.423841571,10.53577695,13.84325873,18.83652509,8.529183735,20.12019614,-1.681075342
7.621093487,19.84282676,17.32012318,15.63696509,1.942602655,-5.187537223,-2.561493983,3.317500418,19.09260115,6.68316737,11.63003277,-2.397126163,1.719138556,10.41670088,14.0383201,22.59618171,9.762694449,23.08803366,0.400761001
9.344340265,21.72330412,18.63624972,10.52501775,1.315047508,-4.999599935,-4.431421997,3.240591827,18.36764407,6.65657543,10.51593169,-2.698501143,-0.41587224,9.22910674,11.67704983,24.58738735,9.073746651,23.58202914,1.953157621
10.03853731,21.61457401,19.07744983,4.758568413,0.273111807,-5.181019637,-5.987883275,2.071052516,15.60518174,5.046467801,7.879673246,-4.022455314,-2.744513943,7.483386249,7.279785316,24.62038979,7.136887206,21.20720648,2.355735801
9.031039963,19.13401036,17.94804767,1.922862307,-1.193952502,-5.888663,-7.435651398,-0.44074963,10.85549521,1.905249569,3.368890763,-6.660916297,-4.966805448,5.808447974,2.411411842,22.69277703,4.794683932,16.19772494,1.410180103
6.199247285,14.5885777,14.97761429,3.131159494,-2.877539011,-6.924261702,-8.789783691,-3.617923623,5.572726754,-1.78502351,-1.974916102,-10.22249771,-6.801094708,4.484827007,-1.182163244,19.01262182,2.70085334,9.608664631,-0.436448411
2.150485078,8.877646044,10.59739254,6.048413509,-4.417073252,-7.944818104,-9.845637501,-6.277882166,1.724859534,-4.710400897,-6.285926969,-13.73875131,-8.164645032,3.296843336,-2.680031581,14.08341954,1.140097481,3.018597533,-2.250301449
-2.050504169,3.050401962,5.703646173,6.777228029,-5.486839267,-8.718344787,-10.34673997,-7.523717836,0.450680868,-6.057542031,-8.266319278,-16.22385369,-9.274111798,1.827910803,-2.727104569,8.66641445,0.029991709,-2.210445758,-3.108487733
-5.415617169,-2.160181763,1.13742624,3.162226297,-5.97416545,-9.204129425,-10.17768616,-7.301857684,1.322008144,-5.951351721,-8.188383675,-17.25873343,-10.47483483,-0.055640686,-2.94965812,3.535535978,-0.951018165,-5.644778787,-2.639096554
-7.466578345,-6.50741463,-2.678632494,-3.175953878,-6.005228116,-9.418663005,-9.402489898,-6.28524164,2.829973219,-5.158538667,-7.55155277,-17.10923514,-11.83537017,-1.955201817,-4.735220125,-0.843209167,-2.171403703,-7.914204031,-1.248657393
-8.31351196,-10.04124332,-5.692532257,-7.852838711,-5.785832676,-9.25572442,-8.129155247,-5.185179887,3.719472554,-4.30921191,-7.617065495,-16.29741258,-12.83064477,-3.161685415,-8.149201656,-4.463418617,-3.854038243,-10.11677139,0.120240987
-8.404021126,-12.78428577,-7.90672121,-7.13633211,-5.38365572,-8.476303673,-6.360996631,-4.085511517,4.059922934,-3.303768594,-8.11414238,-15.06337341,-12.4860377,-3.194413727,-11.8004595,-7.629865197,-5.961215817,-12.91353205,0.54168954
-8.184239459,-14.58069762,-9.170481956,-1.108495551,-4.647184213,-6.92591361,-4.020293504,-2.400357232,5.115369422,-1.441710556,-7.367937588,-13.27231985,-10.03709031,-2.227951819,-13.77759257,-10.62260065,-8.223283857,-16.00485881,-0.393954931
-7.911183828,-15.24006667,-9.315615041,6.039875019,-3.357328779,-4.808886863,-1.162137191,0.465122988,8.073282532,1.798259772,-3.884886623,-10.87973212,-5.685775612,-1.045990657,-12.97379344,-13.43839427,-10.30527617,-18.3932142,-2.440226194
-7.674378796,-14.81507148,-8.491242102,9.025950481,-1.505427004,-2.75416328,1.817886815,4.308494345,12.70127262,5.993027154,1.935665466,-8.457577233,-0.818703305,-0.523104223,-9.824404004,-15.79572589,-12.00538277,-19.20502591,-4.953297912
-7.503312652,-13.71850269,-7.305305476,5.603714436,0.545172213,-1.542211044,4.229978759,7.933741437,17.14884439,9.75343087,7.571469016,-7.114215372,2.64334674,-1.005225178,-5.932334794,-17.35466377,-13.33657861,-18.38650173,-7.316011826
-7.407660948,-12.5191373,-6.517485804,-1.414303315,2.19451926,-1.632809162,5.447903074,9.860648086,19.20780518,11.59986311,10.07190992,-7.654362897,3.436080529,-2.047654486,-2.903245595,-17.92889603,-14.41895164,-16.69613549,-9.216453828
-7.31743569,-11.54329009,-6.448931823,-5.973055867,2.985283879,-2.822386727,5.346393319,9.458334998,18.09583242,11.11436179,8.434402556,-9.615034774,1.851388656,-2.708942168,-1.29526921,-17.50984929,-15.26514291,-15.01186777,-10.62731593
-7.024408563,-10.60305959,-6.598175235,-3.234927002,2.95002448,-4.304622981,4.455508026,7.576943864,15.28326983,9.423397229,4.672731237,-11.13421582,-0.377731993,-2.193539645,-0.460068672,-16.13176363,-15.6493074,-13.5585064,-11.58263343
-6.240556878,-9.102081998,-5.860202801,6.625693275,2.634185851,-5.134435894,3.644730291,6.060882987,13.55868189,8.510193855,2.514767058,-10.05708075,-1.222761097,-0.392623829,0.669490501,-13.77445732,-15.20491362,-11.74192077,-11.99145351
-4.774595238,-6.482867082,-3.276589311,18.22616761,2.730472237,-4.802946923,3.519811854,6.398481901,14.93390915,9.764807282,4.587877047,-5.627870539,0.240685472,2.037556006,2.525076685,-10.46050032,-13.71500827,-8.771366417,-11.66305634
-2.699245022,-2.704374179,1.216336942,24.65701672,3.566880285,-3.540466256,3.97998579,8.507966911,18.99065332,12.8375943,10.27948017,0.550983359,3.197052381,4.082455087,4.437569412,-6.48946401,-11.38157212,-4.574434778,-10.51596488
-0.365849418,1.604185944,6.623143486,22.37893557,4.829386006,-2.147420101,4.300134762,10.64352338,23.01458948,15.71146572,16.0342139,5.224897355,5.697519058,4.958079958,5.116882312,-2.570049961,-8.842083185,-0.225883999,-8.776317917
1.761736599,5.440433353,11.46034352,13.6994106,5.745019692,-1.476607947,3.70657318,10.58570578,23.90228802,16.02353325,17.94462668,5.547967478,6.059153564,4.493394848,3.677090752,0.35266209,-6.873467029,2.533315911,-6.972598863
3.337688846,7.981099418,14.64611944,4.966009521,5.608729207,-1.919535455,2.012352198,7.277408799,20.4281885,12.71673298,14.64321491,1.056204953,4.010769979,3.104200043,0.394639565,1.53535504,-5.959599704,2.396894587,-5.694278523
4.265962085,9.017785379,16.05134201,1.816586444,4.271807821,-3.225515466,-0.195735957,1.680303997,14.14990448,6.829021302,8.239390386,-5.947371114,0.751169271,1.4496087,-3.378848736,0.860281675,-6.011662494,-0.575401584,-5.268877253
4.656392239,8.997713993,16.33661735,5.037293325,2.232494521,-4.735397857,-1.98892782,-3.812503983,8.27283052,0.852726215,2.603430154,-11.95100527,-2.061174899,0.045602688,-6.064291365,-1.055954913,-6.428040996,-4.876723114,-5.580187853
4.666197445,8.67041651,16.26509772,10.11798185,0.267717522,-5.830404503,-2.824674371,-6.985723066,5.364482517,-2.86040622,0.411319437,-14.6081009,-3.551412238,-0.92130884,-6.820448231,-3.144036101,-6.441421687,-8.382025013,-6.153524154
4.358441179,8.595856975,16.06238106,10.81027591,-1.111806335,-6.279161808,-2.996456738,-7.245824477,5.660422908,-3.509495605,1.304544388,-14.16169028,-4.133048957,-1.520586433,-5.946158606,-4.349525089,-5.511700327,-9.507626733,-6.450386358
3.664718491,8.827418136,15.29783609,3.996086018,-1.977942449,-6.27689875,-3.431635351,-5.861111569,7.182059996,-2.130123617,2.542186845,-12.89173561,-4.935234476,-1.864991912,-4.504386269,-3.986120518,-3.524577022,-7.945355393,-6.179489395
2.439363607,8.931943918,13.30224473,-7.778290404,-2.854192279,-6.205863034,-4.9683392,-4.889287182,7.445858187,-0.67891543,1.472301084,-13.0933983,-6.685097907,-1.939036082,-3.524098696,-1.830979619,-0.729941268,-4.591366063,-5.432814974
0.536231851,8.282026188,9.721783238,-17.9645122,-4.260625513,-6.325809827,-7.652799378,-5.654249794,5.353204752,-0.67851394,-2.269324685,-15.20744886,-8.983238829,-1.580254868,-3.379010359,1.935020071,2.451276389,-0.87918781,-4.581149756
-2.132949051,6.413327109,4.771966371,-20.59668959,-6.2876647,-6.611612922,-10.59026412,-7.899634626,1.830612813,-2.380531063,-6.579371175,-17.54175409,-10.54725648,-0.606812024,-3.724016393,6.743840873,5.563601091,1.934139496,-4.019645856
-5.540353784,3.251281388,-0.922281254,-14.40884397,-8.502527979,-6.814399478,-12.46555295,-10.14869909,-1.118904597,-4.890309104,-8.7256084,-17.72440437,-10.19539337,0.998961178,-3.921321003,11.56067189,8.115311184,3.100906416,-3.937861488
-9.458717695,-0.872162876,-6.659443286,-3.552694365,-10.22319951,-6.658241801,-12.35477435,-10.86175602,-2.034270038,-6.95378762,-7.561250733,-14.67751093,-7.766789725,2.959871467,-3.573549265,14.88781861,9.520402613,2.309523015,-4.255536975
-13.39273007,-5.37136093,-11.85648395,5.417751256,-10.92933819,-6.016024407,-10.25837518,-9.453046228,-0.953889911,-7.725352875,-4.284516912,-9.559519172,-4.272216166,4.705376034,-2.797958763,15.09414569,9.137966412,-0.507114498,-4.746919178
-16.62820483,-9.631652803,-16.03091991,7.9135472,-10.51658844,-4.962427355,-7.02439338,-6.472906718,0.929400034,-7.037034817,-1.250201342,-5.003973978,-1.214056948,5.532898831,-2.133756683,11.08999008,6.482517715,-5.207445842,-5.252345255
-18.46741789,-13.21069569,-18.76044934,3.852189742,-9.260971996,-3.710287605,-3.78664045,-2.997410389,2.430522304,-5.19621532,0.006852381,-3.31780766,0.351049867,4.891035952,-2.22586647,3.019695852,1.518366271,-11.30910939,-5.822240418
-18.57580432,-15.94681966,-19.82025409,-3.19301238,-7.588357433,-2.506227649,-1.353772552,0.145998456,3.268103465,-2.675566541,-0.183349451,-5.021749817,0.312588438,2.674438242,-3.501000158,-7.516566406,-5.153344742,-17.90611276,-6.68628373
-17.22285013,-17.93469528,-19.44058125,-9.149258489,-5.854168177,-1.553123291,0.061824724,2.698650449,3.986833047,0.01710615,-0.294575743,-8.720648464,-0.691841084,-0.626577312,-5.967915025,-17.98138395,-12.36917447,-23.83538663,-8.059378509
-15.20348554,-19.37385485,-18.38290574,-12.22267196,-4.267612916,-0.974350676,0.703292966,4.728275142,5.135120606,2.322372209,0.771498458,-12.20545724,-1.86399476,-4.048492248,-9.172641392,-25.95003647,-18.74358547,-28.06462688,-9.912505074
-13.41863133,-20.36224831,-17.59575441,-13.23806717,-2.93803815,-0.798927013,0.945222215,6.222023481,6.564836671,3.696170753,2.641001161,-13.83058006,-2.688925878,-6.54720195,-12.31036782,-30.10074765,-23.12506068,-30.0617634,-11.87398291
-12.35177603,-20.76165529,-17.58100949,-13.68274612,-1.929122373,-0.955300563,1.069998638,6.976037532,7.524702304,3.865701236,3.918728886,-13.20572911,-2.960201152,-7.485784312,-14.49790986,-30.57639979,-24.95997197,-29.90716877,-13.35310316
-11.79516742,-20.24612733,-17.94919893,-13.51387533,-1.24717037,-1.289117302,1.246092393,6.863103432,7.423537339,3.087792337,3.645585866,-10.95268742,-2.555652845,-6.942014815,-15.15329858,-28.57263148,-24.41406266,-28.11139985,-13.83280518
-11.03428038,-18.53522229,-17.60252129,-10.86079411,-0.797963127,-1.622792493,1.595168595,6.138489007,6.496698547,2.100336138,2.362133196,-8.014109308,-1.336604181,-5.630148857,-14.31001324,-25.51273832,-22.22244968,-25.31236076,-13.15495947
-9.376893632,-15.66838743,-15.5161823,-3.981100507,-0.40111822,-1.840156839,2.186447492,5.390634021,5.699464446,1.674247808,1.754520751,-5.167646344,0.659409931,-4.458786477,-12.63627768,-22.37819981,-19.3510088,-22.06397497,-11.6104536
-6.653936562,-12.10980222,-11.56047888,6.259915167,0.104381591,-1.942625422,2.931082935,5.099554567,5.873975219,2.052139719,3.157687668,-2.981098135,2.942219862,-3.990848339,-11.0615388,-19.54452701,-16.61372152,-18.78679827,-9.7656681
-3.333108819,-8.563966773,-6.696881552,15.74092942,0.734367614,-2.030075375,3.506536862,5.180764028,6.922026221,2.732062845,6.237292633,-1.939631484,4.583411778,-4.154390168,-10.19865536,-17.03943337,-14.39744574,-15.78882351,-8.132192168
-0.175891515,-5.592324703,-2.344498594,19.21464294,1.325262249,-2.216110719,3.451004216,4.959690681,7.740594344,2.816680166,9.039000573,-2.377578696,4.665846332,-4.395043271,-9.9704762,-14.85870492,-12.60451659,-13.24222335,-6.894914093
2.285031423,-3.298658941,0.60100748,13.84885937,1.63079879,-2.546530994,2.415194353,3.660197077,7.018808811,1.676037832,9.410239387,-4.190651044,2.890027813,-4.158025587,-9.769616743,-13.04779373,-10.83809963,-11.12289702,-5.873191646
4.039719031,-1.341188943,2.290365608,1.493181805,1.468551127,-2.992126084,0.392324869,1.022953091,4.242690881,-0.617410787,6.614141633,-6.679233232,-0.157019485,-3.35352061,-9.089161409,-11.5662733,-8.740490236,-9.234320535,-4.725894847
5.447592084,0.692528892,3.532230549,-12.2049888,0.786458189,-3.520185956,-2.265476428,-2.473804311,0.072521979,-3.448797339,1.799635368,-8.85484804,-3.347700299,-2.46893706,-8.140384951,-10.18520788,-6.298691453,-7.398178601,-3.242577019
6.778079233,2.797684731,4.809326488,-21.35577842,-0.4019169,-4.168674968,-5.070668845,-5.991996219,-4.200658119,-6.272177629,-3.01878084,-10.11434276,-5.762733197,-2.244788653,-7.894430691,-8.608880147,-3.923491014,-5.715202298,-1.513829407
7.829598153,4.328564525,5.556834672,-23.51732507,-2.128429604,-5.031312014,-7.690218912,-8.992560941,-7.632298554,-9.123667538,-6.56073666,-10.76040782,-7.28437714,-3.14500734,-9.386600753,-6.737957568,-2.224625977,-4.656798834,0.12334225
7.944250197,4.262570272,4.387339062,-20.86224004,-4.48353766,-6.138390471,-10.07388151,-11.60541577,-10.20901711,-12.55576892,-9.106424951,-11.86340637,-8.576844161,-4.997313264,-12.7389467,-4.789745263,-1.598853093,-4.815858293,1.298892181
6.416898787,1.828650579,0.16577188,-18.08066115,-7.475758527,-7.328335123,-12.33317475,-14.382548,-12.59250598,-17.01487305,-11.91741936,-14.46002288,-10.47325716,-7.051556772,-16.68915641,-3.086811501,-1.897212483,-6.415444728,1.81072663
2.986774301,-2.912067862,-6.909089462,-18.73533149,-10.84641279,-8.24626283,-14.4938394,-17.63850107,-15.31317574,-22.18874421,-15.83958176,-18.65365731,-13.249224,-8.404677927,-19.13107091,-1.655151779,-2.423187759,-8.933680994,1.677191199
-1.954600356,-8.949850169,-15.12801723,-22.8565195,-14.03251307,-8.522857644,-16.34051862,-20.94474642,-18.14885699,-26.9096325,-20.33301869,-23.31522789,-16.33409796,-8.494708539,-18.42423419,-0.02853082,-2.316549158,-11.20540356,1.038429684
-7.569242069,-14.78728303,-22.21017026,-27.456603,-16.37434617,-8.031794751,-17.4767303,-23.22375531,-20.20722344,-29.74623281,-23.73764489,-26.64342888,-18.64932341,-7.347312216,-14.5783435,2.440112512,-1.114908761,-12.05002795,0.019032999
-12.99846968,-19.19167128,-26.66309708,-29.29483243,-17.45155083,-7.025714069,-17.53188173,-23.39077832,-20.58222008,-29.83873278,-24.48671298,-27.18859735,-19.28078014,-5.461180506,-9.408288657,5.881746139,0.862350404,-11.06141408,-1.329705563
-17.67023885,-21.75065472,-28.5182212,-27.52502812,-17.2884926,-6.009554855,-16.33558418,-21.04405127,-18.97184391,-27.32770662,-22.20213109,-24.61501895,-17.97905786,-3.473205503,-5.457772804,9.360788564,2.579278133,-9.005879911,-2.982938626
-21.29333866,-22.88781261,-28.90477498,-24.12470409,-16.24346899,-5.402733461,-13.93992839,-16.68209981,-15.74409548,-23.07646444,-17.79236146,-19.72636953,-15.17923488,-1.858620364,-4.4018683,11.02230228,2.795746673,-7.487532586,-4.864377929
-23.63912166,-23.37849707,-28.87683822,-21.92961475,-14.65104686,-5.224158704,-10.53055487,-11.33114402,-11.49062886,-17.98048151,-12.59915473,-13.86701381,-11.63460078,-0.831476549,-6.054755882,9.031378772,0.739845216,-8.028688312,-6.826039446
-24.39708419,-23.74216117,-28.50448909,-22.0577483,-12.51443817,-5.050613463,-6.365159094,-5.935345564,-6.577398779,-12.47552004,-7.445873004,-8.232537866,-8.016742486,-0.419464319,-8.679527005,2.781899442,-3.45293079,-11.12858591,-8.70216416
-23.30449588,-23.93324997,-26.97760215,-22.912106,-9.534827612,-4.314044204,-1.818452111,-0.999468081,-1.150505398,-6.625142243,-2.425361386,-3.555153543,-4.760685827,-0.564254578,-10.33051983,-6.441932111,-8.784074949,-15.89960342,-10.37334982
-20.46872112,-23.49312939,-23.57518748,-21.5404258,-5.495281131,-2.744913737,2.540907312,3.312639034,4.452027776,-0.607315412,2.504784459,-0.199970327,-2.146364674,-1.135162103,-10.19754431,-15.8733117,-13.87681021,-20.50731764,-11.77000055
-16.57445857,-21.97642587,-18.59341718,-16.13826738,-0.696223205,-0.638043224,6.001473476,6.847477417,9.394110441,4.956181726,6.835993569,1.655633835,-0.394516019,-1.881891953,-8.958976153,-22.56160132,-17.60636044,-23.12597627,-12.81572689
-12.70793687,-19.29600712,-13.35882505,-7.578446139,3.955075442,1.271191968,7.962253717,9.301835724,12.60348496,9.226899207,9.520535386,2.061012486,0.398041276,-2.446484617,-7.953913457,-24.78199873,-19.52467638,-22.82201266,-13.38502655
-9.823950348,-15.7516426,-9.257833848,1.25635022,7.35726829,2.250641886,8.264677621,10.41952601,13.51704412,11.7804311,9.775010944,1.502341519,0.426792895,-2.508981301,-7.912538077,-22.71194272,-19.88411406,-19.87951108,-13.34443799
-8.19582344,-11.79175648,-6.599620089,7.680651973,8.879265689,2.024658852,7.350209509,10.33857417,12.67938017,13.04763039,7.956793762,0.941292269,0.224448409,-1.996427878,-8.302032489,-18.04166931,-19.31503167,-15.47532038,-12.66004195
-7.256824619,-7.759821133,-4.324288053,11.03987921,8.78184992,0.914656744,6.065822228,9.69061712,11.55799853,14.06971935,5.626093949,1.417238315,0.425495633,-1.181829117,-7.810805655,-12.88743057,-18.39698452,-11.00292069,-11.47078405
-5.987224467,-3.840095336,-0.88315754,12.66475169,8.042558756,-0.424025159,5.185272136,9.252880183,11.54553049,15.65424901,4.564689032,3.355407524,1.348385835,-0.550975368,-5.550602692,-8.761625153,-17.3828971,-7.480610769,-10.03752265
-3.607138947,-0.198395097,4.381042477,14.11755465,7.67090337,-1.461512616,4.941763127,9.371293312,12.8499511,17.59042886,5.446896793,6.089202738,2.698275785,-0.496209768,-1.970843075,-6.184111473,-16.20288124,-5.321082214,-8.586504064
-0.103999879,2.878054095,10.49054072,15.38532227,8.004590388,-2.105339722,4.889511442,9.631204848,14.18189493,18.62181758,7.237202301,8.065364834,3.652054916,-1.056926285,1.281435248,-4.97805496,-14.68816068,-4.451467287,-7.176547049
3.762874403,5.02859248,15.38115251,14.69474447,8.514995997,-2.649362652,4.199057712,9.100708323,13.59773873,17.30339012,7.869265277,7.734375911,3.319344989,-1.917110656,2.466260981,-4.818233489,-12.8302626,-4.573358735,-5.719158295
6.96320341,6.046807796,17.35611054,10.17786061,8.273748793,-3.431523578,2.199398132,7.018191128,9.953613685,13.14094349,5.755142716,4.590087515,1.293503708,-2.676815291,0.958720237,-5.52706363,-10.89038653,-5.348771791,-4.152255015
8.83224617,6.084620968,16.31417279,1.960672407,6.725987422,-4.49191746,-1.177311632,3.417250297,3.898277211,7.134572595,1.005459584,-0.351514326,-2.062770722,-3.18492765,-2.367873845,-6.93811166,-9.285727674,-6.437369227,-2.61751041
9.403665507,5.621676939,13.79378819,-7.192438358,4.17672071,-5.506107003,-5.311964074,-0.797473065,-2.369534275,1.274769194,-4.54835207,-4.998976947,-5.767805751,-3.649939243,-5.83701259,-8.56216462,-8.329856784,-7.454751063,-1.461143482
9.250477013,5.185784415,11.8215285,-13.38196299,1.617186941,-6.037997027,-9.196809822,-4.397114437,-6.443624118,-2.661301601,-8.531125428,-7.306708637,-8.693868696,-4.410931189,-8.142855926,-9.4583332,-8.002197675,-7.96798744,-1.014468252
9.010120669,5.037963774,11.49216482,-14.14010666,0.027823126,-5.90089687,-11.91375909,-6.597745216,-7.202269711,-4.136414922,-9.526702788,-6.382407991,-10.0755161,-5.535214055,-9.065151549,-8.525283094,-7.908089777,-7.58746808,-1.308616546
8.967950093,5.082656267,12.37597506,-10.06986522,-0.30664336,-5.335930214,-13.02462515,-7.494493259,-5.408693046,-3.986196375,-7.855808445,-2.926589217,-9.796935744,-6.582536284,-9.218698465,-5.06673856,-7.472007107,-6.121087428,-1.963048531
8.973851756,5.073622293,13.13267912,-4.293484196,0.0431622,-4.868084186,-12.70215123,-7.87650141,-3.062203928,-3.64624155,-5.179376719,1.204306476,-8.367061801,-6.780708621,-9.153700091,0.751680504,-6.254186103,-3.699101297,-2.370072966
8.677573823,4.919187677,12.72769251,-0.192881138,0.112582876,-4.953301099,-11.59016382,-8.609008011,-2.046828565,-4.130567471,-3.336019841,3.995646753,-6.650951583,-5.545342853,-8.650964909,7.877002752,-4.194115456,-0.783375925,-2.062230342
7.834959981,4.789538585,11.21162445,0.764942362,-0.754107675,-5.68375141,-10.49736191,-10.06142542,-3.058923999,-5.526976666,-3.280266489,4.248493426,-5.49739437,-2.982142088,-6.861120323,14.80650212,-1.626281119,1.971245664,-0.992405859
6.435972687,4.901303878,9.469577751,-0.496112777,-2.497487202,-6.76042834,-10.06509557,-11.9668144,-5.476972989,-7.27827846,-4.771313448,2.043238405,-5.401671286,0.025799512,-3.195070982,20.22483598,0.936546722,3.962650167,0.482034201
4.606667364,5.163717657,8.25857073,-2.037751769,-4.504561517,-7.731013184,-10.53086281,-13.7300112,-8.080854684,-8.865234159,-6.836789442,-1.458096909,-6.319919491,2.269099298,1.794651394,23.47839663,3.099120624,4.889406198,1.883833783
2.446458456,5.03997225,7.44125069,-2.80681188,-6.148306068,-8.298286746,-11.66825915,-14.87323566,-9.950569061,-10.24201693,-8.524333542,-4.678244842,-7.71663693,2.931214815,6.342656632,24.65956246,4.752670772,4.870020353,2.928845458
-0.005044181,3.831749444,6.105696553,-3.437012234,-7.237909317,-8.473325461,-12.92429748,-15.26678452,-10.88313228,-11.68157331,-9.39390945,-6.381409115,-8.846463734,2.08783137,8.387649399,24.32102503,6.007180554,4.342414966,3.619236509
-2.636524582,1.229433785,3.451511964,-5.395001141,-8.029945075,-8.485475265,-13.69256464,-15.02927128,-11.16511867,-13.2587683,-9.530465969,-6.15794271,-9.14322338,0.63278257,6.868413864,23.03358994,6.955531845,3.763189504,4.071987801
-5.125970485,-2.30867208,-0.362906521,-9.354707714,-8.844327316,-8.547113055,-13.58485515,-14.26845117,-11.0640507,-14.52337503,-9.237383639,-4.446473125,-8.491752603,-0.32450771,2.463691834,21.04419469,7.466087872,3.261972306,4.272941229
-6.989230413,-5.713841254,-4.186754589,-14.27313195,-9.660112984,-8.663151993,-12.55488169,-12.93296359,-10.53855126,-14.72423083,-8.722379152,-2.145231559,-7.199361667,-0.171781046,-2.770410755,18.19719708,7.178919564,2.477330493,4.005415374
-7.84839754,-7.963084294,-6.721182647,-17.94389065,-10.06331889,-8.618937818,-10.81885611,-10.90432952,-9.372451128,-13.42932951,-7.977713774,-0.0718661,-5.683122252,0.872990602,-6.615088556,14.12960547,5.724307589,0.730603694,3.033053374
-7.729627763,-8.770822928,-7.535618044,-18.50812606,-9.598521396,-8.137599306,-8.660672665,-8.227076629,-7.525876123,-11.00765027,-6.857003801,1.40375932,-4.115526467,2.015739749,-7.910720934,8.618871507,3.010358276,-2.508420267,1.372503078
-7.124281799,-8.769140244,-7.385858555,-15.65420015,-8.218801323,-7.083035015,-6.291692182,-5.256225127,-5.330443752,-8.526952962,-5.235957039,2.361413411,-2.327431442,2.510805972,-6.982556205,1.895882042,-0.627930981,-7.12811707,-0.604361783
-6.707609499,-8.993395319,-7.547922362,-10.62823055,-6.437264317,-5.571161757,-3.874828857,-2.579116338,-3.341027691,-7.097842965,-3.15048139,3.038882994,-0.069176516,2.187522907,-5.080885729,-5.249351955,-4.523789986,-12.1927323,-2.355636971
-6.888904269,-10.03825329,-8.716616543,-5.261806252,-5.030000944,-3.928561567,-1.657148011,-0.755489069,-1.985820028,-7.151513597,-0.857617692,3.53291762,2.585101074,1.510874884,-3.34941227,-11.65210405,-7.949801063,-16.25817308,-3.502731805
-7.532404165,-11.54272952,-10.39443863,-0.981882026,-4.513122406,-2.535924115,-0.029269977,-0.053877514,-1.325846254,-8.197207939,1.203965543,3.763893557,5.06757326,1.171079382,-2.110946658,-16.19451298,-10.38862954,-18.06713766,-4.036146929
-8.084342095,-12.44122663,-11.29541048,1.442465937,-4.803622222,-1.650470073,0.625938167,-0.349097806,-1.115249895,-9.227660859,2.557197244,3.719123415,6.595633869,1.54045632,-0.942011223,-18.28522547,-11.66016084,-17.24142716,-4.22906874
-8.03164882,-11.82725868,-10.44532442,1.542782787,-5.324652637,-1.298379928,0.232608282,-1.220519337,-1.079451185,-9.445154818,2.888720979,3.697483579,6.728472228,2.405745549,0.623521505,-18.16691737,-11.89112996,-14.55488091,-4.355210207
-7.343851153,-9.774162767,-8.077370264,-1.056075065,-5.460293348,-1.284894943,-0.780207893,-2.16596784,-1.152529197,-8.763432182,2.202263292,4.22540007,5.746228753,3.145738152,2.383642705,-16.8828842,-11.41803538,-11.60341332,-4.479306943
-6.539893565,-7.451446984,-5.58053761,-6.188250096,-4.997141106,-1.313928518,-1.616144552,-2.805273358,-1.478347764,-7.751170432,0.810874172,5.596561704,4.488470071,3.179266988,3.343360124,-15.88564522,-10.7086121,-10.04351096,-4.508915243
-6.300054517,-6.39323406,-4.521507328,-12.42462138,-4.221160528,-1.158809104,-1.57390177,-2.989246253,-2.20249901,-7.123514144,-0.845496666,7.391079954,3.721753541,2.327550981,2.304535362,-16.43796879,-10.29671435,-10.81718687,-4.433384476
-6.90050238,-7.425752621,-5.500347341,-17.0452401,-3.627651027,-0.795484136,-0.532555382,-2.795752256,-3.257455325,-7.201109482,-2.428983514,8.477009666,3.531143951,0.843091487,-1.241832102,-19.05701455,-10.65879647,-13.76708523,-4.476086021
-7.902933977,-10.03757816,-7.720838072,-17.26635284,-3.503419,-0.418043515,0.922192819,-2.436849293,-4.328435873,-7.71982867,-3.800000671,7.681371243,3.265232021,-0.854710598,-6.564785768,-23.24194224,-12.00215018,-17.79719098,-4.949604036
-8.355486121,-12.65884193,-9.578916926,-12.12080969,-3.713198244,-0.315405263,1.877051185,-2.118126092,-5.017185894,-8.06240739,-4.913981041,4.735849534,2.13438195,-2.473628034,-11.90321022,-27.61569713,-14.05847405,-21.42797931,-5.892422208
-7.383917376,-13.64701716,-9.781575832,-3.525876229,-3.828378753,-0.67690158,1.731646765,-1.905122019,-5.056963852,-7.670702553,-5.645410626,0.744931137,-0.000413255,-3.925470691,-15.3442336,-30.44899116,-16.05791988,-23.42042423,-6.820771492
-4.762643048,-12.27212136,-8.137771577,4.579649587,-3.455316127,-1.455715423,0.627468383,-1.663741989,-4.411102354,-6.319874141,-5.755281029,-2.331106259,-2.324386118,-5.163021665,-15.83112392,-30.37319872,-16.99161287,-23.1778093,-6.896709326
-1.073367908,-9.032429891,-5.480369263,8.697467132,-2.487371431,-2.394650846,-0.668909777,-1.125041927,-3.208706044,-4.111289466,-5.092609048,-2.944752245,-3.574456372,-5.981353262,-13.67109695,-26.98297122,-16.07445411,-20.81023017,-5.48266104
2.635975724,-5.161476603,-2.889317214,8.102657319,-1.11012364,-3.20626718,-1.345073675,-0.06087827,-1.613699399,-1.287643074,-3.872653078,-1.080833133,-3.01284386,-6.018435142,-10.23252705,-21.03358151,-13.14375848,-16.92826859,-2.689870501
5.427577618,-1.778733163,-0.902135554,5.22551085,0.383505014,-3.774036608,-1.135611468,1.526194512,0.237147533,1.91596932,-2.738596583,1.674774889,-1.099430301,-4.999264367,-7.040209443,-14.08911848,-8.732418296,-12.3226598,0.540333212
6.887702005,0.665654582,0.67468941,3.694383598,1.769446,-4.208039694,-0.468455289,3.331483161,2.179320604,5.262569314,-2.450564129,3.266132947,0.72041505,-3.025078682,-4.86135445,-7.748440428,-3.763999318,-7.67864106,2.960296513
7.148114468,2.3182858,2.294509429,5.519343099,2.91692752,-4.693827667,-0.064564071,4.869792643,3.929689938,8.407703092,-3.36943983,2.69253143,1.013318679,-0.63285244,-3.372801195,-2.842654334,0.91603247,-3.417919605,3.805196021
6.598286532,3.426854911,4.030866449,9.642598187,3.698002818,-5.248403249,-0.329651146,5.737261723,5.09494128,10.86776081,-5.12942151,0.750125678,-0.595473829,1.480594254,-1.605603026,0.918914364,4.845695303,0.29862108,3.267321296
5.575551828,3.937429048,5.358654285,13.0125246,3.941602813,-5.599750045,-1.033638056,5.853062852,5.344221186,12.17382107,-6.793096871,-0.620572289,-3.128669539,2.89334173,1.169570723,4.592161744,7.902059588,3.432505848,2.28911955
