Channel 1 - P4,Channel 2 - O2,Channel 3 - P8,Channel 4 - T8,Channel 5 - C4,Channel 6 - Cz,Channel 7 - Fz,Channel 8 - F4,Channel 9 - Fp2,Channel 10 - F8,Channel 11 - Fp1,Channel 12 - F7,Channel 13 - F3,Channel 14 - C3,Channel 15 - T7,Channel 16 - P7,Channel 17 - P3,Channel 18 - O1,Channel 19 - Pz
30.08496489,5.009761018,1.05801565,8.315101731,11.50617273,-5.416718738,-6.704950485,5.200924442,-15.05850625,-2.094341563,-28.88868857,-7.44175796,-8.510354188,6.012732613,-18.67518796,-11.00622884,22.53313033,21.9293665,-2.541342512
26.57685546,5.781786206,1.450685672,-0.736240332,7.565068887,-6.864290039,-8.43323539,1.23382046,-17.32966541,-6.548607333,-34.79800298,-9.948632264,-10.65214113,8.30991516,-20.60010017,-8.677998721,21.15049386,21.0644199,0.692815294
16.26888526,1.684675345,-0.169042604,-11.57428612,2.284995865,-5.540649966,-5.819241971,-1.118468833,-14.7465643,-7.353742974,-30.49812931,-7.738981603,-7.560316001,10.14241923,-17.44790592,-5.509719926,13.06356887,11.27284485,4.121682026
4.084626025,-4.925699318,-2.787726883,-20.66338959,-2.6722702,-2.915628515,-1.634664902,-2.124559865,-11.21983008,-7.330429941,-21.52380235,-2.974153501,-2.460079507,10.9124519,-10.85428737,-1.266615821,3.462373291,-0.238500237,6.233379836
-4.908873955,-10.94785506,-5.214217727,-25.02180371,-5.990541392,-0.919117037,0.668169444,-2.656719105,-10.20324138,-9.370489209,-14.88103439,0.873526854,0.484996364,10.29728678,-4.229157775,3.200289451,-2.497735462,-6.578705129,6.24656408
-8.25416658,-14.20142572,-6.733334763,-23.77695067,-7.231326187,-0.645107263,-0.596861225,-3.355648713,-12.28467725,-14.00293829,-14.3294739,1.465329814,-0.930035802,8.486828593,-0.876055012,6.113752134,-2.902674851,-5.488285392,4.723646696
-6.90590934,-14.2711808,-7.27125117,-18.31525825,-6.820574307,-1.76364611,-4.291358003,-4.080727827,-15.18120695,-18.96942545,-18.53973644,-1.087130353,-5.607664945,6.122773472,-2.210796196,5.796686861,0.203504737,-0.039881619,3.234855183
-3.836137569,-12.19763732,-7.090766513,-11.24101979,-5.597777859,-2.982024098,-7.481944564,-4.07818651,-15.89473885,-21.07320904,-23.00828846,-4.759127534,-10.19112227,3.969262486,-7.108256915,1.842555205,2.832776917,4.354288156,3.259672475
-1.728278742,-9.494125262,-6.424341305,-5.15456418,-4.301162545,-3.118448285,-7.6839189,-2.72272465,-13.17658538,-18.77429528,-23.81536399,-7.265193768,-11.54901086,2.548909674,-12.69263808,-4.426954324,2.10627274,4.075792346,5.120598474
-1.476575968,-7.293458375,-5.422561181,-2.004709626,-3.321488744,-1.948501533,-4.595132723,-0.213970931,-8.391422784,-13.47233877,-20.26019091,-7.42132614,-8.800499878,1.992352666,-16.02896578,-10.57245245,-1.89976192,-0.49214654,7.744460766
-2.331733628,-6.103379453,-4.403335082,-2.897916897,-2.777162802,-0.234272493,-0.089829262,2.376216962,-4.284525098,-8.517528026,-14.68979964,-5.356447283,-3.517461698,2.162856441,-15.69440444,-14.32533636,-6.647548091,-5.962637537,9.423507778
-3.166096845,-6.044046361,-4.023955509,-7.774367582,-2.697620255,0.985612899,3.3670588,3.803295584,-2.812718605,-6.781650866,-10.1825006,-1.827688854,1.763152412,2.894844264,-12.3568585,-14.72026552,-9.291936695,-8.916138258,8.993749241
-3.585581702,-7.093060676,-5.027243329,-14.82943665,-3.070079185,1.218897482,4.556180128,3.587835807,-3.787366316,-8.674626776,-8.218377169,2.456896743,5.365534002,4.120503831,-8.125594628,-12.38899648,-8.709138081,-8.34078155,6.559784697
-3.995903965,-9.024513499,-7.631135135,-20.43405723,-3.71075136,0.811673015,4.195619322,2.457661302,-5.254121941,-12.04143044,-8.067618084,6.909287865,7.258133783,5.799482911,-5.158994954,-8.928266984,-5.95177292,-5.820677681,3.288519733
-4.785506583,-11.175711,-11.05853536,-20.47592427,-4.157266475,0.546919599,4.094075229,1.905428681,-5.106261804,-13.87942167,-7.968477873,10.74499675,8.446197089,7.771664821,-4.402610868,-5.84699562,-3.046460514,-3.728030781,0.529747735
-5.561858914,-12.44742529,-13.71913859,-12.97693876,-3.81061104,0.948188802,5.576700485,3.133745389,-2.58431044,-12.50050174,-6.772642195,12.95094051,9.764664348,9.723877005,-5.18995863,-3.791143911,-1.296690655,-3.166570699,-1.002629714
-5.243233405,-11.76902306,-14.08180152,-0.308390664,-2.333705598,1.878032848,8.457242982,6.134718009,1.376119615,-8.591034434,-4.674067981,12.84849846,11.17410726,11.33118905,-5.880742022,-2.46194679,-0.457904411,-3.327134098,-1.401364666
-2.959877026,-8.797596842,-11.68206439,11.14221865,-0.029226713,2.721872334,11.2683655,9.577071316,4.953491267,-4.583210969,-2.706667477,10.78898547,12.01483249,12.43406051,-5.077438543,-1.139214264,0.709492513,-2.538849186,-1.10239813
1.051219372,-4.308388468,-7.508588719,14.52182948,2.158315553,2.94249058,12.42334195,11.60430796,6.592924482,-2.98645661,-1.783227231,8.17440631,11.75987724,13.05227121,-2.625461599,0.641475823,3.137177796,0.096837881,-0.322305405
5.389689096,0.111438922,-3.420938053,7.347657113,3.130506399,2.507233228,11.32696071,11.00319476,5.679476121,-4.90724784,-2.215118383,6.519772994,10.46123751,13.19559246,0.240784767,2.722427072,6.526986525,3.901383616,1.061556451
8.379446312,2.929836013,-0.978093334,-5.923536881,2.332865563,1.843829995,8.638827619,7.950815774,2.52230011,-9.625511942,-3.932350937,6.230470549,8.535845434,12.6684191,1.693723812,4.454130706,9.50824214,7.177277171,3.12323913
9.193392674,3.504552428,-0.522334506,-16.09801395,0.158861813,1.409643636,5.655414143,3.859005292,-1.996460814,-15.2494028,-6.854820224,6.222895397,6.265173016,11.13621666,0.536953366,5.167954082,10.65698737,8.490083196,5.436234006
8.311501622,2.297711791,-1.175063021,-15.36469259,-2.279500946,1.283263626,3.434647088,0.466321446,-6.712520041,-19.83134399,-10.81619791,4.91977057,3.649904751,8.511245282,-2.929104087,4.653402161,9.524130343,7.564375119,7.076882614
6.979488716,0.359711266,-1.693807761,-3.226143512,-3.89159915,1.139270282,2.340774988,-1.177031589,-10.36956739,-22.252433,-15.08652471,1.923236229,0.825986761,5.375505566,-6.9591794,3.345963676,6.907900165,5.186463041,7.179990599
6.164274227,-1.470955802,-1.477736777,12.30071482,-4.325611289,0.609720514,2.203916703,-1.162455829,-11.9193649,-22.51869103,-18.14663586,-1.102940203,-1.428471386,3.003452339,-9.30923784,2.125398978,4.249123196,2.408562942,5.607276617
5.881641343,-3.027271205,-0.928322,19.64986841,-4.114399346,-0.307946305,2.760784063,-0.379551623,-10.98164877,-21.48947724,-18.26044475,-1.331917942,-1.779649566,2.774977963,-8.495452547,1.835633722,2.665666231,-0.167225387,3.131212718
5.403319669,-4.643098968,-0.933737816,11.71302644,-4.124920308,-1.171324578,3.914016499,0.297537728,-8.148413254,-20.26003623,-14.62627768,3.014218758,0.808426469,5.257537706,-4.609744103,2.769754975,2.312618281,-2.50929345,0.916312477
4.081524247,-6.609375168,-1.980586039,-8.786181907,-4.738666674,-1.422615031,5.643820625,0.674116495,-4.731157674,-19.48745926,-8.204927448,10.84789885,6.064317265,9.59997402,0.760623579,4.383916824,2.423122016,-4.803286575,-0.321567938
2.026516169,-8.799338852,-3.69129955,-30.62172574,-5.431213384,-0.848849561,7.779841387,1.286964931,-1.956941468,-18.982391,-1.425070061,18.40616006,12.16019616,13.77802822,5.401278188,5.418062652,1.886425331,-7.120964475,-0.801355595
0.046891545,-10.7959767,-5.195208572,-41.40321611,-5.131347666,0.220212585,9.937398458,2.852545885,-0.182350209,-17.84597376,3.163489377,21.57164395,16.61571045,15.67027489,7.575560945,4.43111728,-0.069686624,-9.42350046,-1.406874259
-1.068677022,-12.35608025,-5.998055964,-35.80517116,-3.12395359,1.146994395,11.69918384,5.558687365,1.178951398,-15.18406063,4.333534723,18.71839605,17.79761126,14.31674907,6.751838565,0.550271971,-3.475348738,-11.75025714,-2.882884421
-1.276863368,-13.71452699,-6.553824772,-18.85931954,0.205176946,1.46148528,12.84924833,8.750533495,2.870602903,-11.00783212,2.664566565,11.93274329,15.90695245,10.51150548,3.642487333,-5.924210951,-7.629915659,-14.22331078,-5.163885046
-1.366644477,-15.37387328,-7.968754159,-2.073857111,3.414044691,1.190738743,13.42425468,11.26808405,4.809293071,-6.636517015,-0.201490852,5.615859261,12.70163883,6.297979333,-0.332622063,-13.41912162,-11.43940626,-16.74366453,-7.390138489
-2.318338781,-17.51678593,-11.00741953,4.648997,4.887782829,0.78769831,13.55846055,12.21537728,5.859082504,-4.113618761,-2.816181563,3.459491543,10.19220265,3.691576935,-3.777183915,-19.64513044,-13.89518037,-18.68807945,-8.590128419
-4.462398058,-19.57747718,-15.20796704,-0.59020393,3.951938224,0.740227552,13.32275791,11.61653144,4.73494803,-4.849811057,-4.652111902,6.027988524,9.342133545,3.492105533,-5.866712764,-22.61159634,-14.50393349,-19.04759943,-8.456626241
-7.126024629,-20.4359651,-18.89763747,-11.37288227,1.390923471,1.194151521,12.75154588,10.47147686,1.364909121,-8.428490273,-5.852300056,10.68764436,9.735311722,4.966777641,-6.529053116,-21.59772533,-13.49918802,-17.08529779,-7.576603177
-9.046799572,-19.18658646,-20.21176033,-18.48835455,-1.039280933,1.889209065,12.02036495,10.13143654,-2.527650069,-12.59591445,-6.479403527,13.8001583,10.32187228,6.547631799,-6.283648278,-17.53081804,-11.71498757,-13.04635436,-6.940098862
-9.217368002,-15.9081121,-18.40243839,-16.86317516,-1.773355221,2.428256211,11.5301133,11.3939049,-4.351029956,-14.67400235,-6.149590866,13.39984451,10.4680909,6.976864234,-5.884429459,-12.50888886,-10.13384397,-8.268701005,-7.149268721
-7.513216185,-11.79143961,-14.44488076,-8.786617813,-0.439960225,2.622540109,11.70615623,13.93267836,-2.552688498,-13.49372409,-4.469367709,10.32582917,10.36964565,6.071677785,-5.935077666,-8.691502913,-9.31860477,-4.461730073,-7.976398765
-4.673649637,-8.456511697,-10.45360685,-1.452141061,2.002673106,2.610489407,12.6089032,16.46765048,1.97634024,-10.38310705,-1.824089232,7.107751551,10.54498212,4.630350435,-6.626215684,-7.178775484,-9.072078643,-2.627195332,-8.6035475
-1.734226187,-6.938550499,-8.31989612,-1.159360561,4.051333039,2.659633576,13.69998012,17.57491241,6.245394713,-8.330347538,0.362527806,5.682158822,10.98903985,3.661657618,-7.702799001,-7.53645068,-8.587157214,-2.466347345,-8.303012865
0.602528168,-7.105332732,-8.565025536,-8.732258285,4.736331195,2.839960545,14.04832095,16.58861856,7.163360224,-9.827512692,0.341509719,5.828200089,10.86261249,3.580801765,-8.683701425,-8.24767726,-7.042419957,-2.777994896,-6.976417546
2.212639964,-7.932799631,-10.21165357,-19.34916525,4.18693441,2.865097976,12.90531986,13.9751472,3.728641028,-14.99995593,-2.744768966,5.490229399,9.075040559,3.959452529,-9.220115392,-7.795027906,-4.257983806,-2.543256139,-5.132126614
3.346875262,-8.378350327,-11.67171417,-26.40450993,3.316608471,2.25155406,10.23073954,10.92889176,-2.290895242,-21.49392874,-8.150375384,2.585569933,5.274604835,3.943158264,-9.364602023,-5.66661948,-0.927665968,-1.790800113,-3.379968926
4.273282753,-8.116297974,-11.88381252,-26.12767092,2.956672256,0.67730906,6.73775211,8.490926807,-7.734065427,-26.2527247,-13.96780053,-3.223221051,0.357577413,2.953524339,-9.538119785,-2.619845155,1.790744552,-1.479567543,-1.917772587
5.10852959,-7.537929179,-10.81245889,-19.55878662,3.165907766,-1.744025141,3.390311456,6.82906882,-10.39494074,-27.8059251,-18.41173924,-10.14946136,-3.998865587,1.138911601,-10.16948637,-0.023660112,3.077768193,-2.445577458,-0.449051154
5.92152023,-7.061338906,-9.016764758,-10.89348557,3.248840282,-4.487914331,0.733054189,5.192800001,-10.49722666,-27.26516989,-20.91693507,-15.46587178,-6.439617034,-0.712755644,-11.23698665,1.269272824,3.077326277,-4.28042229,1.435093208
6.901394992,-6.407614805,-6.794940535,-4.028593046,2.41315912,-6.919735172,-1.42049221,2.56034158,-10.18608981,-27.25079953,-22.19348297,-17.23847991,-6.791830922,-1.676011285,-12.06767352,1.717722381,2.865905634,-5.147323509,3.781019522
8.330854165,-4.557814812,-3.746196504,-0.183013558,0.489215577,-8.641583663,-3.703540313,-1.505316368,-11.55078112,-29.64399546,-23.28932631,-15.33345775,-6.020440042,-1.230121971,-11.61344074,2.937110196,3.745922447,-2.846445945,6.130578459
10.32484941,-0.541086453,0.806486635,1.825075531,-1.87770749,-9.63825113,-6.559590348,-6.412027581,-14.84743208,-33.99856971,-24.54601923,-11.14530277,-5.377328599,0.485416872,-9.089445862,6.606804162,6.336075015,3.553545514,7.820718361
12.56154394,5.52728427,6.874996767,3.386723122,-3.689266001,-10.14818134,-9.770752952,-10.81060132,-18.34370195,-37.88249259,-25.36689221,-6.501473348,-5.476182621,2.786776924,-4.570181146,13.11841012,10.08761214,12.70748356,8.445259992
14.28761246,12.02690297,13.19208968,4.160074169,-4.304804838,-10.39735976,-12.51378235,-13.36987426,-19.81025459,-38.82948417,-24.93990407,-2.666720472,-6.007818088,4.794685963,0.874960182,20.8893048,13.5572743,21.4071226,8.08375445
14.66456639,16.48198749,17.55754579,2.073112739,-3.831358825,-10.41845689,-13.87386638,-13.51004379,-18.34097066,-36.29015676,-23.18464623,-0.046438148,-6.209676191,5.808352164,5.630256229,26.89102602,15.24009398,26.21438736,7.139199249
13.22722714,16.91416834,18.010412,-4.79601662,-2.933724955,-10.08200594,-13.40446652,-11.63128191,-15.00167087,-32.03170891,-21.00669401,1.501281965,-5.579471597,5.557312706,8.297962751,28.16563248,14.39722214,25.25958505,5.978637783
10.11434542,12.96599058,14.00092112,-16.07224572,-2.296160376,-9.283328382,-11.33619852,-8.768303841,-11.86932212,-28.74756957,-19.59270824,2.252271621,-4.20782474,4.271054013,8.310998932,23.43408547,11.35908832,19.06534868,4.714868624
5.907215138,6.003661183,6.692985203,-28.45157374,-2.212756249,-8.108963686,-8.354205736,-5.983367657,-10.36792757,-28.07160174,-19.36428641,2.476776018,-2.53723333,2.557750168,6.059620963,13.80154499,7.179577791,9.967025113,3.290589683
1.226667616,-1.843079163,-1.818665555,-37.18243228,-2.597310447,-6.836308549,-5.185309193,-3.906447946,-10.29605182,-29.56673711,-19.53009944,2.524625444,-0.889752374,1.122781083,2.542619353,2.124664549,2.953263338,0.648650307,1.717268686
-3.575623679,-8.970664498,-9.766856731,-38.72741401,-3.286717831,-5.763479285,-2.305979404,-2.627375644,-10.23721717,-31.34249721,-18.65833813,2.836986737,0.746625271,0.426131822,-1.160538939,-8.538399717,-0.721638714,-7.183563944,0.181852673
-8.394478598,-14.98746243,-16.50245878,-32.89354429,-4.258146776,-5.004011962,0.102366158,-1.861076706,-8.845048263,-31.60767579,-15.81041767,3.728015578,2.510941141,0.450376247,-4.269088716,-16.40230873,-3.829145091,-13.21274567,-1.107117194
-13.07608151,-20.37949584,-22.29441193,-23.1084077,-5.516163945,-4.408898325,2.046933192,-1.181709395,-5.857553157,-29.83628723,-11.31156229,5.107756865,4.323520047,0.740481455,-6.400096603,-21.46228424,-6.616930788,-17.96183287,-2.170023919
-17.15028172,-25.5515155,-27.43853547,-14.67104038,-6.788432046,-3.682251465,3.619700818,-0.20358169,-2.095939011,-26.75900044,-6.566604214,6.458778325,5.80552439,0.731445008,-7.478287841,-24.84130242,-9.179147765,-21.8845304,-3.308725707
-19.8737781,-30.09965102,-31.52087171,-11.94535477,-7.419322361,-2.612910915,4.941089168,1.27559706,1.32803545,-23.4933442,-3.128621255,7.17568596,6.571464258,0.171361907,-7.617484372,-27.57494108,-11.25411664,-24.82656382,-4.840193386
-20.60760071,-32.93152354,-33.50943245,-15.99611189,-6.707382088,-1.257258712,6.090789159,3.134335466,3.755821307,-20.76635157,-1.782582241,7.030737934,6.603765578,-0.658677556,-7.044101853,-29.75772318,-12.34857526,-26.18588068,-6.714708639
-19.2624349,-33.1226161,-32.61040243,-23.92694469,-4.5007589,0.062031601,7.000859617,4.863908897,5.076573802,-18.85441718,-2.276883943,6.385007001,6.32139031,-1.112067155,-6.023884357,-30.61962846,-12.06290864,-25.53072895,-8.384127785
-16.46104149,-30.77889105,-29.14047283,-30.34695208,-1.538880217,0.951795114,7.411295758,5.730443854,5.331045114,-18.00025217,-3.72060627,5.966872169,6.252855727,-0.636074033,-4.754346703,-29.35482742,-10.37865029,-23.1202933,-9.106474834
-13.25679006,-27.15853623,-24.61028079,-30.32438139,0.858070379,1.212413241,7.021086559,5.198240352,4.46367795,-18.57266051,-5.162543827,6.398660882,6.617501391,0.806481774,-3.279845645,-25.95947692,-7.724188768,-19.89792953,-8.488000265
-10.56485549,-23.89343173,-20.84052799,-22.32881203,1.641109979,0.986404481,5.808748981,3.394972334,2.598054481,-20.59917472,-5.896623721,7.839293865,7.214177464,2.672670103,-1.536375386,-21.37300242,-4.788050675,-16.9481066,-6.815768461
-8.668890065,-21.86726522,-18.73284142,-9.475574453,0.821625223,0.67311474,4.270018523,1.241518432,0.513415996,-23.12665937,-5.465300151,9.974162141,7.715777362,4.187302439,0.459552912,-16.8083518,-2.194721295,-14.80120487,-4.86714872
-7.114645618,-20.58634008,-17.63489284,1.868043927,-0.443722803,0.645114817,3.279296911,0.022740221,-0.370759849,-24.26514266,-3.6592515,12.2777972,8.065565999,4.844271816,2.433343607,-12.82468994,-0.22301172,-13.07274134,-3.311060388
-5.041557903,-18.51278185,-15.80687531,5.593547567,-0.613934937,0.948829031,3.545331352,0.592645299,1.203319993,-22.2522851,-0.699881507,14.29087165,8.565785921,4.692022431,3.903980249,-8.911697543,1.284263065,-10.69347376,-2.18013286
-1.726220274,-14.11711793,-11.65501821,-0.442129539,1.149792787,1.208348012,5.020164128,2.763528188,5.275891743,-16.8596587,2.595912988,15.73099642,9.551582987,4.215465098,4.522688451,-3.950509777,2.772322769,-6.597787718,-0.867383485
2.995968048,-6.900974996,-4.817842823,-12.80992106,4.377944074,0.835481313,6.773487777,5.382234197,10.32490264,-9.924947182,5.048866134,16.46935026,10.96330783,3.945447964,4.473247675,2.784453339,4.66648448,-0.445455117,1.316106692
8.652033238,2.291567742,3.671241481,-24.19247005,7.629265182,-0.559163574,7.552420619,7.111505113,14.12610297,-4.349455749,5.820163476,16.51328277,12.25400142,4.117361754,4.561696728,10.85991414,7.073985493,7.06699247,4.456894479
14.38515654,11.80294711,12.1878788,-27.50747799,9.514506178,-2.822554903,6.688936778,7.36524792,15.2760999,-2.166231149,5.112606443,16.04391247,12.76369644,4.615870617,5.798552904,18.76469266,9.670552034,14.4930104,7.79046452
19.34364036,20.07051763,19.59438907,-19.97001871,9.627582819,-5.242340163,4.658757679,6.673988632,14.16625942,-3.162933794,4.195179175,15.40648612,12.2435573,5.177658224,8.685060749,24.80355767,11.84864026,20.34201999,10.11773424
22.97271559,26.26282062,25.73970255,-4.548398547,8.692949415,-6.914827198,2.792577009,6.172172716,12.56140572,-5.196440071,4.53097531,14.94722228,11.05520119,5.621588059,12.72533675,28.15213222,13.0476669,23.77640924,10.58943923
25.08510747,30.29444395,31.05113665,12.03105431,7.865218322,-7.285243944,2.294408272,6.602690391,12.09370249,-5.978122292,6.585877771,14.76748755,9.865371745,5.905093815,16.59743633,29.30331851,13.06658808,24.89287799,9.268250323
25.74244505,32.37767226,35.64502456,23.2773809,7.776288619,-6.500277891,3.312887065,7.65069023,12.93215802,-4.877703619,9.308971896,14.6295529,9.126820743,6.013670576,18.94118092,29.59659322,12.16217944,24.45634334,7.053618714
25.07945665,32.57328316,38.76171108,26.2283678,8.092276902,-5.313712959,4.821454798,8.176150052,13.76320456,-3.269548633,10.83548455,14.17690253,8.82756568,5.861332651,19.21790277,30.19450946,10.87096388,23.30155272,5.046965622
23.20000222,30.70357946,39.04097521,22.05233858,7.900650202,-4.585809292,5.437614031,7.181844645,13.08405605,-3.180657983,9.952042845,13.33730839,8.711797913,5.346336529,17.99326873,31.24544605,9.671977976,21.808006,3.84447468
20.19403823,26.62748277,35.4535238,14.05247549,6.572178812,-4.709990139,4.543103123,4.728661003,10.65201396,-5.440406125,7.142215614,12.53535921,8.697164546,4.510773343,16.41410184,31.79209608,8.707281714,19.76784347,3.25724305
16.23243062,20.57731041,28.16817987,5.009066021,4.380812497,-5.367090201,2.801290886,2.028118212,7.790229737,-8.927770022,4.288766357,12.4372961,9.014247316,3.605051602,15.28189086,30.42760423,7.729692108,16.6778493,2.595582737
11.6489426,13.24980107,18.68251311,-4.008371612,2.389516216,-5.783926677,1.648934422,0.608958308,6.2749059,-11.52092456,3.209110034,13.36583607,9.890887428,2.927811608,14.45707535,26.20479436,6.293547414,12.20846868,1.232478667
6.934809534,5.589771942,9.113370682,-12.73823652,1.710804326,-5.31197442,2.179648074,1.222307666,6.816009056,-11.85619633,4.225410838,14.89364671,11.1155765,2.549339327,13.07199601,19.21234793,4.058335001,6.526346522,-0.988124572
2.631203248,-1.539057997,1.162301125,-20.01658843,2.728837342,-3.908204132,4.331925936,3.368378086,8.52567415,-10.32509127,5.999509458,16.05996469,12.01379197,2.196611064,10.37928727,10.54484089,1.031145819,0.29991919,-3.733222959
-0.831315529,-7.551628312,-4.540528693,-23.23217767,4.857984677,-2.171498901,7.024630355,5.803605224,9.873384547,-8.472155115,6.80559022,16.13287938,12.00518379,1.481907607,6.543762976,1.814972904,-2.36212089,-5.546407485,-6.452783353
-3.265545135,-12.12914711,-8.359243138,-19.82201494,6.960797392,-0.915060335,9.078489666,7.561977552,10.243256,-7.428968973,6.148407107,15.29307047,11.28552753,0.341475932,2.72659504,-5.431627676,-5.385948811,-10.13423655,-8.662319731
-4.766878164,-15.1193741,-11.05222792,-9.739559386,8.051490048,-0.593756764,10.11317713,8.60533411,10.60158095,-6.891725614,5.277998135,14.57584625,10.91477181,-0.703823834,0.378593082,-10.12396167,-7.228637948,-12.84320237,-10.04773056
-5.643459147,-16.51688502,-13.18191716,3.285308668,7.761104,-1.002265124,10.66914719,9.567779728,12.55062811,-5.623586474,6.070328413,15.00108028,12.03255222,-0.779119093,0.288115005,-11.83840325,-7.28662187,-13.42227317,-10.43009053
-6.276524263,-16.552443,-14.93139451,13.14557885,6.309513711,-1.447719935,11.50707376,10.87525368,16.54365151,-3.010770899,9.187427904,16.57820442,14.74702727,0.705323534,2.108575533,-10.80678422,-5.419231507,-12.05653228,-9.753907056
-6.978239057,-15.75098214,-16.30712437,14.80823628,4.144780637,-1.247824797,12.7608793,12.08649922,20.91645807,-0.153431822,13.14447591,18.10158315,17.69822553,3.488150949,4.691125399,-7.798211374,-2.072592485,-9.384612365,-8.179754314
-7.901836974,-14.79570761,-17.39079983,7.469773976,1.617857039,-0.18168614,13.72795283,12.11026318,22.79800649,0.681065211,15.22248948,18.05765354,18.87116244,6.476808804,6.917152435,-3.843093159,1.829417048,-6.367969115,-6.178883981
-9.018307331,-14.19711654,-18.33866628,-4.907902296,-1.07174648,1.414034171,13.48611116,10.16106836,20.33778209,-2.063011385,13.60487353,15.98627112,17.18318502,8.441640967,8.380282879,0.188516474,5.251051797,-3.936227533,-4.448888817
-10.1358282,-13.9674351,-19.1341212,-16.16119744,-3.722938234,2.925402965,11.76813961,6.617170624,14.43235792,-7.620641643,9.00293235,13.12554505,13.57807084,8.90641974,9.458681948,3.984783681,7.533579999,-2.510725448,-3.59483752
-10.92967223,-13.55191797,-19.37055273,-21.80153288,-6.012333982,3.866387952,9.283002516,2.971164919,8.396325852,-13.08121482,4.35484783,11.6501,10.59088532,8.528347176,10.83824016,7.894709173,8.736121635,-1.698523893,-3.745440895
-10.97469785,-12.10527184,-18.32913236,-21.47621512,-7.561069989,4.102511852,7.166578501,0.822321897,5.665245505,-15.39243335,2.72044103,12.9730638,10.53022245,8.606142835,12.93969151,12.58475613,9.579035953,-0.442563268,-4.388411912
-9.805421509,-8.950458086,-15.34850461,-18.38305993,-8.11976818,3.770553459,6.033069763,0.705720053,7.28370337,-13.6303839,4.987307257,16.46165393,13.62395791,10.03963269,15.67026948,18.4133769,10.96599224,2.35906206,-4.59207476
-7.035571243,-3.926277906,-10.21865825,-16.28371802,-7.67604418,3.026888978,5.472488867,1.740877694,11.18864429,-9.649010066,9.198603744,19.70734917,17.64636267,12.54098386,18.56264751,24.9531574,13.36257127,7.115882624,-3.511934531
-2.533042465,2.572673095,-3.311709678,-16.47137428,-6.380296094,1.874576042,4.45699441,2.419644739,13.88156788,-6.5201326,12.02961649,20.27311882,19.44763258,14.7510525,21.04703598,31.05001853,16.45460483,13.19444358,-0.87359325
3.414414793,9.82102057,4.60562455,-16.93996212,-4.386846064,0.219301255,2.312480413,1.887557522,13.14960734,-6.024062181,11.23355578,17.58270711,17.27783133,15.22236137,22.60071721,35.43711799,19.34687535,19.23046923,2.862186751
10.04687958,17.03244111,12.67337284,-14.24315891,-1.801561181,-1.911137238,-0.601207922,0.635226119,9.656327162,-7.272060904,7.147577124,13.40074968,12.09691138,13.52944047,22.76952257,37.48586399,21.17416855,23.90637683,6.731397428
16.2734019,23.4804321,20.10055159,-6.514922686,1.191608759,-4.193571725,-3.114371151,0.002368309,6.177343402,-7.611330562,2.170559349,10.43455378,6.817556786,10.62972404,21.24845185,37.53657396,21.66874188,26.64205468,9.730187608
20.994956,28.4650413,26.12985258,4.654162058,4.168749552,-6.052560395,-4.195030401,0.911520819,5.197476798,-5.04911777,-1.222576425,10.12868449,4.066515188,8.160157478,18.11764538,36.54913324,21.23738203,27.70988687,11.2393275
23.4843763,31.28908627,29.98294542,14.85044244,6.499262636,-6.911734832,-3.794247345,2.928316659,6.892803806,-0.149341824,-2.25634404,11.44572871,4.242865907,7.188590171,14.0517453,35.33297933,20.47522879,27.73573732,11.21231272
23.63764065,31.39736883,31.00289412,19.49819002,7.650140921,-6.481544363,-2.841483532,4.49592414,9.128507732,4.21272041,-2.05309431,11.6866174,5.409509153,7.385394087,10.18381388,33.94223185,19.50774703,27.02985977,10.08795931
21.95557515,28.65312305,29.00035929,16.69418232,7.56521796,-4.889780989,-2.382012054,4.204739691,9.387083085,5.071252707,-2.273567307,8.762232604,5.065308772,7.276362302,7.528951617,31.68714863,17.7289433,25.30938503,8.51455175
19.25506103,23.54565752,24.54673842,8.367334256,6.792442363,-2.58440549,-2.603396126,2.062338369,6.964289489,1.76676806,-3.478437688,3.11749492,2.330051082,5.411359468,6.30980446,27.72523821,14.22066942,22.02701086,7.021696615
16.26597821,17.11718392,18.90339856,-0.866781488,6.192745787,-0.096692846,-2.604820325,-0.312552691,3.625515813,-3.413946977,-4.598874472,-2.263298332,-1.229218156,1.575793635,5.757184585,21.75409638,8.590461905,16.99930127,5.775701675
13.34242961,10.58780773,13.51670744,-6.314426574,6.403439772,2.174577465,-1.125425701,-0.785818932,2.253272913,-6.845081396,-3.864092305,-3.840307726,-2.767018652,-2.870023386,4.684274246,14.28886644,1.584460644,10.77432109,4.532633296
10.44736299,4.89070536,9.358691643,-5.672768142,7.454874574,4.04673453,2.378453526,1.745318052,4.658122459,-6.115728276,-0.302261729,0.001192556,-0.346049553,-5.790600145,2.499868728,6.380889079,-5.057220933,4.408311867,2.841915944
7.393646445,0.405636566,6.550721026,-0.036930928,8.837053643,5.503480461,7.213408373,6.560743153,10.30739245,-1.559036491,5.451135914,7.832512555,5.601969972,-5.647316587,-0.137009628,-0.916338164,-9.487967794,-1.164483509,0.426857762
4.15528036,-2.970349559,4.519897633,6.930385308,9.949575188,6.588574615,11.90715058,11.66972003,16.8495415,4.284507412,11.59877669,16.18677405,12.61798649,-2.483579227,-1.649187026,-6.887829611,-10.79846771,-5.632776692,-2.478769563
1.017944971,-5.527346655,2.5446117,11.07755828,10.54866726,7.321872201,15.22997591,15.21646689,21.81457749,8.633329449,16.35529524,21.80977885,17.9521413,2.121461356,-0.733692899,-11.12305627,-9.484836511,-9.262322221,-5.10358367
-1.54421396,-7.478601242,0.267446594,9.977577716,10.8115918,7.670344625,16.90937434,16.60456033,24.0388341,10.20736744,18.82049534,23.42607811,20.24152913,6.028722199,2.466467208,-13.32174551,-7.016946851,-12.37220944,-6.528878249
-3.176900982,-8.908455453,-2.182194548,4.184177509,10.97774969,7.566715673,17.47881477,16.51080229,23.81382673,9.498773334,18.96965382,21.85213305,19.88990806,7.73531417,6.187233209,-13.29422921,-4.837008798,-14.82972863,-6.299261917
-3.908953976,-9.895720437,-4.468727463,-3.105802567,10.91024974,6.95974199,17.48809426,15.92312284,21.97231198,7.678562202,17.06911702,18.70827933,18.10818204,7.028668422,8.122548574,-11.25589924,-3.515744715,-16.04689996,-4.824948419
-4.165991642,-10.61734992,-6.420058078,-7.890462484,10.01321221,5.883756127,16.86048221,15.13017101,18.9775872,5.337611566,13.29882966,15.03485135,15.67523677,4.804472061,7.016337318,-8.112343768,-2.633742355,-15.51089059,-3.216386023
-4.508527448,-11.27760167,-8.137489018,-7.818178464,7.645168359,4.522793849,15.01919238,13.55560706,14.87094007,2.201950333,8.009161882,10.96997175,12.55817146,2.3393781,3.563630196,-5.296194725,-1.378694846,-13.38428474,-2.579116298
-5.270657821,-11.90438126,-9.770293347,-3.876215353,3.728833865,3.220805897,11.6737778,10.53174443,9.95632366,-2.076038867,2.252353484,6.530152217,8.60249381,0.584253497,-0.092506861,-4.041088963,0.682025602,-10.6126101,-3.237187369
-6.349634245,-12.21968538,-11.20665692,-0.120237391,-0.951482552,2.390978626,7.512956706,6.254788375,5.326294051,-6.972841528,-2.188174387,2.494477282,4.454860082,-0.122493408,-1.898549591,-4.52267192,3.269217577,-8.379212002,-4.480245681
-7.286506783,-11.7619252,-12.01790439,-1.274348649,-5.061270705,2.330525406,4.076641011,1.994118921,2.48283958,-11.02407592,-3.648764969,0.346484992,1.661861681,0.085584263,-1.285330746,-5.568148948,5.702939187,-7.315086962,-5.083381732
-7.567503821,-10.22558859,-11.75956202,-9.446857456,-7.460839495,3.028137523,2.772560679,-0.720906901,2.21873486,-12.8079605,-1.817037664,1.175525418,1.6739245,0.896410041,0.626722651,-5.320790173,7.517995399,-7.110734211,-4.254349679
-6.925463967,-7.770171305,-10.39083131,-22.09226255,-7.859833158,4.093113112,3.772731539,-1.305768241,3.730866376,-12.15533131,1.692799223,4.49711094,4.548362313,2.000520737,2.093817439,-2.522145982,8.821161728,-6.866015718,-2.287597771
-5.441833273,-5.031706939,-8.433635443,-32.88984438,-6.914452772,4.886184908,5.705524369,-0.699566579,4.86978429,-10.49836394,4.098031238,8.150556075,8.525292804,3.106418696,2.162663462,2.487670878,10.08843665,-5.901447044,-0.384817115
-3.417093431,-2.782453843,-6.689076374,-35.42172459,-5.716260762,4.809331927,6.476760874,-0.767133121,3.516855303,-9.965824352,3.188810502,9.571632513,10.99066324,3.919939016,1.284805772,7.849237556,11.60621733,-4.357301824,0.2618033
-1.151661218,-1.463925298,-5.701969933,-27.49006829,-5.061999697,3.599240959,4.673060267,-2.914357962,-0.891044282,-11.86923026,-1.151354029,7.553399519,10.19658605,4.215454608,0.705745836,11.37946477,13.07422268,-3.071836655,-0.573729997
1.177442139,-0.935743892,-5.393554021,-13.1173711,-5.02000581,1.453859394,0.532807856,-6.955040848,-6.857340065,-15.72630618,-6.793208466,3.124546299,6.450550125,3.976976152,1.24034574,12.05755462,13.74574228,-2.83256825,-1.919527519
3.469983264,-0.63461991,-5.166791403,-0.536622534,-5.047430411,-1.078176276,-4.216596215,-11.10522756,-11.74978096,-19.54843273,-10.7557471,-1.178927473,1.864248658,3.458642396,2.519660343,10.6961021,13.00776341,-3.636289931,-2.314135408
5.571299277,-0.035775555,-4.418242131,2.851110429,-4.496547233,-3.368837699,-7.521190298,-13.14422846,-13.48478597,-21.16067756,-11.18874912,-3.121585295,-1.147143542,3.041098482,3.325708439,9.25672388,10.9054628,-4.615790188,-0.926993002
7.208973835,0.911432408,-3.069837572,-4.681802394,-3.106039947,-4.976860282,-8.323842556,-11.92633003,-11.77922496,-19.60267861,-8.561318642,-2.296903049,-1.496263642,2.926464804,2.655732844,9.278020963,8.136785226,-4.759714907,1.77241985
8.072239279,1.674764101,-1.722502378,-17.9005263,-1.158308951,-5.767670959,-7.148607611,-8.192145971,-8.172501063,-15.68756148,-5.267522118,-0.264938822,-0.025015826,2.877261817,0.536788965,10.57062515,5.477524301,-3.889633321,4.308977814
7.965688005,1.41672296,-1.330348348,-27.92758394,0.723886304,-5.855547041,-5.619433543,-4.149049931,-4.95072517,-11.45525585,-3.990602054,0.717140474,1.263984821,2.221707666,-2.122588148,11.16515629,3.091271238,-3.101493778,5.216308673
6.896834121,-0.542271322,-2.648254837,-28.03898468,1.92798264,-5.445337235,-5.322809079,-2.139731771,-3.809098468,-8.983298319,-5.982725654,-0.655149721,0.691328624,0.192406079,-4.459981003,8.59296637,0.318367961,-4.243259654,3.98305102
5.024182814,-4.364115375,-5.836266632,-18.01084224,2.113974082,-4.68869062,-6.795084963,-3.27937731,-5.090509584,-9.310550955,-10.3690903,-3.918892749,-1.974140071,-3.559398768,-6.465397434,1.617066102,-3.810058499,-8.712584368,1.245068253
2.53352787,-9.605773031,-10.43390551,-4.055872292,1.302389476,-3.629470845,-9.230072989,-6.874990534,-7.877995054,-12.00569838,-14.80281726,-7.340066614,-5.439540391,-8.574587124,-8.875821502,-8.77656966,-9.662862738,-16.37734217,-1.82150136
-0.414592176,-15.37499714,-15.61988942,5.526711879,-0.156206326,-2.242739693,-10.98389835,-10.88003118,-10.63477312,-15.4631356,-16.90759846,-9.185850978,-7.76015279,-13.58709969,-12.21300572,-19.76931084,-16.38671966,-25.36448043,-4.325397687
-3.596702804,-20.58781047,-20.50504604,5.884303603,-1.662494299,-0.52352265,-10.49587209,-13.01788951,-11.902029,-17.66993847,-15.55053906,-8.755679322,-7.480395717,-16.98026373,-15.84634479,-28.16289677,-22.09432754,-32.88535529,-6.030809392
-6.590413759,-24.21963377,-24.28313322,-1.492274319,-2.511787859,1.428378117,-7.099248033,-11.9092541,-10.76999699,-17.07937986,-11.24936118,-6.498616708,-4.343474623,-17.5069439,-18.01766675,-31.91685342,-24.81884313,-36.59579773,-7.084613024
-8.778538944,-25.53622348,-26.27327953,-10.30715356,-2.143154405,3.370087469,-1.349993251,-7.654043475,-7.106460955,-13.26452307,-5.63935625,-3.336692998,0.720659914,-14.90916285,-16.9657661,-30.86675467,-23.63130623,-35.68593755,-7.511587242
-9.596604296,-24.32022084,-26.01022339,-14.03566839,-0.448581402,4.951621072,5.219910909,-1.678058256,-1.597407231,-7.110712343,-0.458603884,0.120214461,6.162348433,-10.08839494,-12.31146472,-26.38263575,-19.18083416,-31.12121726,-7.060168492
-8.909840418,-21.03760592,-23.45731439,-10.1474371,2.036208118,5.831643041,10.77172641,3.984754533,4.431596681,-0.445289823,3.318459107,3.839175874,10.54887706,-4.695080102,-5.56367859,-20.42456464,-13.30338767,-25.00298324,-5.581811723
-7.238577961,-16.80619969,-19.22024757,-1.170854951,4.254770748,5.837850722,13.94422106,7.593375815,9.458884852,4.763238807,5.754608205,8.008717477,13.12305046,-0.326508284,0.728710939,-14.6901484,-7.972508073,-19.50079614,-3.542879419
-5.599788599,-13.06129961,-14.53081857,7.668352947,5.090245038,5.089734305,14.39644011,8.3760571,12.35181741,7.249881982,7.556525755,12.47193759,13.98574347,2.231988027,4.566214586,-10.256175,-4.286377747,-15.95459521,-2.061845474
-4.992687823,-10.98839902,-10.87647922,12.06105878,3.932879615,3.989526746,12.83975958,6.703233945,12.77646473,6.877122938,9.305788814,16.45876588,13.85973998,3.282397614,5.618570812,-7.635625527,-2.114854158,-14.54043391,-2.258783484
-5.836216948,-10.99059921,-9.403392465,10.77642385,1.001626393,3.045814505,10.53104285,3.718250496,11.15369088,4.410721195,10.81723096,18.8245663,13.55107862,3.840188286,5.061687627,-6.919595874,-0.543356599,-14.53204813,-4.363508971
-7.735435252,-12.50545694,-10.4121928,5.229703235,-2.79772604,2.605784817,8.510669096,0.655111374,8.205547711,0.858793368,11.07994656,18.6051278,13.38852483,4.85341402,4.371831418,-7.79480505,1.288586695,-14.89908101,-7.347586313
-9.73799876,-14.30939051,-13.23605156,-2.496370128,-6.38393184,2.659117657,7.055654749,-1.763615908,4.476948909,-3.108399718,8.901097783,15.51559781,12.99564943,6.533112854,4.134800963,-9.517362676,3.570892672,-14.8843808,-9.492245094
-10.8969023,-15.15282121,-16.56136578,-11.13717284,-9.038084426,2.857028902,5.701956622,-3.515223242,0.233648017,-7.245746801,3.885256382,10.12072938,11.59959711,8.248255979,3.829980053,-11.06200378,5.813498783,-14.29105447,-9.540122035
-10.74952004,-14.36674792,-18.99992052,-20.07511268,-10.63339845,2.753633034,3.796420496,-4.996436955,-4.235200643,-11.37218443,-2.951112722,3.630645913,8.715620858,9.04754022,2.648209,-11.5198127,7.352661625,-13.40343959,-7.553364267
-9.416853187,-12.11926275,-19.62376208,-28.13816154,-11.47475479,2.112449711,1.138189316,-6.541380905,-8.313165088,-15.02191006,-9.503084948,-2.551905899,4.708355516,8.41578436,0.496530145,-10.54431433,7.920578261,-12.66608661,-4.790755671
-7.338811999,-9.24283636,-18.26270979,-33.02873027,-11.95022534,1.057983532,-1.809183,-8.130645896,-11.20567383,-17.552713,-13.79472963,-7.345172111,0.735740017,6.691623721,-1.780851519,-8.525603688,7.82914407,-12.36214636,-2.695530033
-4.931951862,-6.811869371,-15.5250976,-32.40861323,-12.28740557,-0.044788334,-4.30918141,-9.501659971,-12.55629993,-18.69236636,-15.32005628,-10.37156346,-1.98235957,4.820678388,-3.18416645,-6.33781443,7.654015158,-12.50679844,-1.810598414
-2.465619055,-5.740969134,-12.59921608,-25.9721916,-12.55418237,-0.896574158,-6.009199098,-10.5168116,-12.99236354,-19.00677181,-15.48063774,-12.03849046,-3.057378297,3.626631952,-3.610821484,-4.822178936,7.701043403,-13.00607741,-1.493110934
-0.206725842,-6.564732953,-10.89503481,-16.65438066,-12.80476409,-1.519532169,-7.274944573,-11.4158584,-13.95556231,-19.73305943,-16.62666963,-13.22991232,-3.254811641,3.167062065,-4.153174518,-4.362673236,7.694766005,-13.92141496,-0.630024894
1.391824511,-9.380142253,-11.57394406,-9.573044988,-13.16358351,-2.254674388,-8.867870636,-12.68009051,-16.71391677,-21.93839664,-20.24588301,-14.71361943,-3.904613592,2.691943127,-6.256796689,-4.820254602,6.942046798,-15.57708164,1.2772629
1.738323763,-13.84930897,-15.07040767,-9.092485261,-13.74269018,-3.486482326,-11.20239954,-14.59285034,-21.23016949,-25.61434506,-25.61522557,-16.59192136,-5.801632128,1.26035618,-10.38629912,-5.802113705,4.84873535,-18.3539502,3.584753703
0.442391477,-19.22442379,-20.80677636,-16.02213711,-14.48464938,-5.293174066,-13.82411837,-16.88289974,-25.86641868,-29.49328196,-30.05069668,-18.18797472,-8.483886369,-1.452599086,-15.35954632,-7.004055234,1.394219222,-22.27760075,4.970678211
-2.299455249,-24.46623058,-27.31520931,-27.02937566,-15.11573699,-7.286401074,-15.61186604,-18.80131327,-28.35811614,-31.84869224,-30.76506761,-18.53011319,-10.54196163,-4.794829984,-19.02422392,-8.363626979,-2.797052473,-26.73100207,4.483274807
-5.629454478,-28.53393583,-32.8133985,-36.73757177,-15.29386757,-8.768783815,-15.60482496,-19.61642226,-27.45340553,-31.71329836,-27.06176143,-17.16500238,-10.78416903,-7.524834883,-19.83733925,-9.966589516,-6.83849849,-30.59524079,2.281591029
-8.415315704,-30.78603109,-35.99463638,-40.98550496,-14.84134125,-9.106272532,-13.78938278,-19.12684469,-23.94759075,-29.53503416,-21.17569195,-14.71076286,-9.324350227,-8.667826626,-18.09946936,-11.85731743,-10.12504973,-32.81846206,-0.534266055
-9.877647752,-31.26631081,-36.59375932,-38.94194095,-13.8549451,-8.063270612,-11.15529362,-17.74258639,-20.18630511,-26.69887216,-16.94962616,-12.65312764,-7.639116589,-8.187656556,-15.79670994,-13.93771457,-12.62622409,-33.04633324,-2.817931359
-10.01143902,-30.63561273,-35.3690502,-32.78207243,-12.58566136,-5.89076372,-8.910662755,-16.041665,-18.28538246,-24.277939,-17.13619936,-12.39939875,-7.439945875,-6.958444601,-15.08891998,-16.00294528,-14.71493519,-31.8257023,-4.207982424
-9.477580892,-29.71513095,-33.49285616,-25.55040845,-11.19067479,-3.146927097,-7.467001285,-14.18080326,-18.40141174,-22.05731517,-21.24157209,-14.18941057,-9.201150332,-6.061575388,-16.58394474,-17.81629987,-16.6779931,-30.16413268,-5.201624098
-9.034784259,-28.90263422,-31.74113479,-19.08102301,-9.586590514,-0.410868833,-6.051598837,-11.70393872,-18.46084318,-18.69212777,-25.56519336,-16.66043547,-11.54350915,-5.952969737,-18.75202727,-19.11821152,-18.30034145,-28.72232441,-6.465995654
-8.940736653,-27.86960699,-30.02012644,-13.48838252,-7.552308681,1.912021832,-3.332329975,-7.97780053,-15.68015319,-12.93148834,-25.55935789,-17.47321127,-12.05442633,-6.134295347,-18.97129358,-19.58645874,-18.86019915,-27.24878881,-8.049665975
-8.782722255,-25.7937407,-27.54035218,-8.226846573,-5.008451065,3.609417236,1.388967741,-2.934476912,-8.798028889,-4.927269023,-18.93708251,-14.67621123,-8.996055874,-5.558441755,-15.43380678,-18.86650417,-17.55999497,-24.73825831,-9.221292264
-7.866954536,-22.00688166,-23.49737483,-3.411630736,-2.234279555,4.576627305,7.36227907,2.512274813,0.67780712,3.47154401,-7.364395667,-7.943050426,-2.624254318,-3.433058794,-8.481185649,-16.74306852,-14.08800452,-20.26057395,-9.083199601
-5.857728072,-16.6139994,-17.77001811,-0.075004548,0.177263873,4.759471173,12.64635405,6.79491464,9.208428027,9.742970943,4.458065172,1.129550195,4.88382495,0.196036809,-0.391608916,-13.35817959,-8.908242722,-13.86268707,-7.408805184
-3.156493761,-10.62157628,-11.14970583,0.811786801,1.612872719,4.190698853,15.29987165,8.59129686,13.45635891,12.28121365,11.69405212,9.858216493,10.83027879,4.491724243,6.168884369,-9.269482112,-3.079865359,-6.834375497,-4.952084995
-0.70650058,-5.440485859,-4.9556779,-0.488800475,1.766115236,3.064625292,14.63149878,7.640672691,12.4028929,11.35076807,12.26964435,15.89791812,13.66217367,8.40585559,9.8323749,-5.228200567,2.251088407,-1.0712037,-2.942226067
0.650428074,-2.072290368,-0.31197784,-2.322548752,0.76621053,1.737715788,11.5811873,4.859242124,7.850643083,8.725701112,7.862428226,18.36095531,13.69524551,11.30640986,11.12420039,-1.794768698,6.328795475,2.052726016,-2.186741637
0.792424604,-0.524194867,2.435054801,-2.740989612,-0.953320604,0.600437422,7.976379133,1.674765258,3.037182015,6.369736225,2.459363146,17.99052085,12.47822009,13.18833722,11.64037238,0.911815677,8.940362538,2.500302844,-2.534933933
0.449999143,0.150152664,3.812918082,-0.92331792,-2.906536591,-0.116940087,5.257371582,-0.902088948,0.450647107,5.203768719,-0.3869508,16.38991765,11.43090212,14.38631071,12.56785094,3.108568742,10.22761451,1.489193978,-3.123201975
0.744253322,1.21326129,4.825492949,2.302799961,-4.729430208,-0.470580113,3.624638246,-2.780393536,0.41097448,4.821855501,0.28543926,14.88172656,10.85751202,15.10948995,13.73654921,4.963756372,10.39618163,0.590879575,-3.142060063
2.447702361,3.436376471,6.346707826,5.239430509,-6.195288062,-0.76430832,2.174965348,-4.556737946,1.279154529,4.178970055,2.59622637,13.72631979,10.00655613,15.21529467,13.87963051,6.282866786,9.590654471,0.690478104,-2.439194686
5.469851968,6.639698921,8.658272329,6.634459007,-7.152261804,-1.36257792,-0.18826084,-6.835020524,0.914519475,2.530246217,3.415036406,12.13051858,7.951675386,14.38311096,11.79103679,6.597368649,8.003508132,1.55841181,-1.46630423
8.896418637,9.837355565,11.33753302,6.359230907,-7.513274032,-2.47089112,-3.827824398,-9.694923316,-1.804632966,-0.147564556,0.566600412,8.968158999,4.471122946,12.4873118,7.404578314,5.650104695,6.040862435,2.28289949,-0.693346054
11.52552108,11.83795576,13.48512515,4.963078447,-7.327189305,-4.012393454,-8.096986725,-12.69524116,-6.415712688,-3.424017726,-5.802713352,3.731408308,0.246475745,9.815735637,1.962967283,3.880809045,4.300684919,2.144935383,-0.086014764
12.52950169,11.88927987,14.13965279,2.740109975,-6.827174711,-5.659390738,-11.80655786,-15.29015672,-11.41728834,-6.902664795,-13.41914456,-2.868979185,-3.636599798,6.946017995,-2.783245962,2.427951427,3.29227685,1.21318318,0.849448079
11.83196645,9.994858713,12.69877354,-0.590529867,-6.339187161,-6.987580723,-13.97113732,-17.19754597,-15.28371268,-10.35701406,-19.29978391,-9.024306344,-6.346660099,4.407178812,-5.661141656,2.506135882,3.089081903,0.217801141,2.505429536
10.01788946,6.797759084,9.202341167,-5.147312782,-6.06984324,-7.66921738,-14.26566582,-18.37836382,-17.16142791,-13.42060914,-21.39031222,-12.64336153,-7.587022849,2.430978251,-6.616280723,4.546734385,3.221306956,-0.124313267,4.646124287
7.90339523,3.201637343,4.377917418,-9.824928356,-5.947263499,-7.622683666,-12.97401286,-18.7251882,-16.93565533,-15.28630144,-19.47303462,-12.44745031,-7.427121648,0.989573865,-6.394006473,7.761444671,2.959826392,0.273802459,6.444737692
6.070682075,-0.005302502,-0.597891764,-12.19279086,-5.691543606,-7.063754172,-10.65200266,-17.88359264,-14.93430483,-14.93258665,-14.98968602,-8.738392187,-6.045252734,0.035920392,-5.751953541,10.5343291,1.827818496,0.827218333,7.093490909
4.634254679,-2.360759839,-4.573745683,-9.935792289,-5.106887389,-6.433439615,-7.875622342,-15.51797351,-11.71419681,-11.88931178,-10.09012389,-3.363561919,-3.735623034,-0.326995699,-4.915105994,11.42423238,-0.039440491,0.812438002,6.45248097
3.3161742,-3.779143589,-6.95330714,-2.981891404,-4.365645629,-6.211108134,-5.230206398,-11.87094331,-8.089308447,-6.951218438,-6.5626468,1.168705467,-1.140456912,0.051439002,-3.697136653,10.05489556,-1.987325557,-0.018327625,5.143160713
1.717802795,-4.530550744,-8.010599402,5.449090959,-4.007962946,-6.671913777,-3.379809497,-8.081909903,-5.172529402,-2.131504229,-5.210015823,2.957221016,0.675956822,1.066203518,-2.096145526,7.215663185,-3.351881039,-1.293166327,3.980984432
-0.403995683,-5.188570043,-8.773263798,10.11027087,-4.5854417,-7.700535535,-2.958658536,-5.813828175,-4.116678969,0.321711811,-5.859574491,1.62169263,0.616179081,2.147561952,-0.754465021,4.094055203,-4.013806316,-2.476358237,3.243047497
-3.001152292,-6.499312853,-10.4709141,6.84778588,-6.183776706,-8.781829482,-4.230236181,-6.273583342,-5.534485224,-0.732817573,-7.802594136,-1.682710816,-1.742830628,2.410258707,-0.787667715,1.253982737,-4.55760404,-3.516947063,2.432150799
-5.773071183,-9.116367381,-13.81498736,-4.432399734,-8.205847445,-9.214399655,-6.751251241,-9.272091749,-8.959073051,-4.553261315,-10.26739381,-5.11643566,-5.659546765,1.148520086,-3.028506059,-1.804592143,-5.875016537,-5.089695552,0.766415203
-8.317403922,-13.25332329,-18.51915939,-19.09202335,-9.635217045,-8.457868015,-9.366517569,-13.06496481,-12.80644049,-8.864111941,-12.62040078,-7.260591689,-9.427699179,-1.636718943,-7.250224687,-6.122196632,-8.473346255,-8.149385282,-2.028885781
-10.29368677,-18.43624328,-23.36436695,-30.05074211,-9.637663748,-6.418312428,-10.64992229,-15.21421306,-15.00605492,-11.1070751,-14.27108964,-7.720072777,-11.23459612,-5.06869048,-12.0104938,-12.1953206,-11.99185334,-13.0955086,-5.337923575
-11.52170434,-23.55612405,-26.80087028,-31.696658,-8.082580896,-3.49212684,-9.572840151,-13.97479554,-14.00247517,-9.779078971,-14.52567728,-6.890599795,-10.12493191,-7.753507837,-15.32562035,-19.21769383,-15.29865993,-19.20013921,-8.044129481
-11.9878523,-27.27003462,-27.75164393,-22.99624917,-5.607607558,-0.337964662,-6.004106669,-9.303921457,-9.557403298,-5.067198965,-12.68601245,-5.22725443,-6.428239757,-8.478397823,-15.77277335,-25.30804182,-17.12533329,-24.78728163,-9.375342007
-11.78330407,-28.56796467,-26.15013248,-7.965118075,-3.185487969,2.468742307,-0.759516681,-2.835836235,-2.891181183,1.462710578,-8.464999922,-2.730681715,-1.424056422,-6.828959581,-13.28837439,-28.60938506,-16.8050927,-28.08887394,-9.471723962
-11.02538382,-27.18506961,-22.90132353,6.610529274,-1.518224743,4.664975775,4.786476275,3.121475093,3.902281881,7.766199799,-2.447945771,0.873068751,3.423554949,-3.361787067,-9.129800863,-28.43802893,-14.60670767,-28.18605887,-9.174215679
-9.809528873,-23.61774222,-19.30336844,14.70036084,-0.692248361,6.274417974,9.273125971,6.862609899,8.828632421,12.21849442,3.838693305,5.450819902,7.094224752,0.737845652,-5.047383284,-25.6020593,-11.45387693,-25.38374827,-9.214976231
-8.210125067,-18.7589171,-16.2908868,13.81523658,-0.303705249,7.388505997,11.81891604,8.009727218,10.83765797,14.10811862,8.487753264,9.986341411,9.171437793,4.267930226,-2.250874367,-21.66206266,-8.264354498,-20.80700967,-9.528766542
-6.314039414,-13.42173925,-13.96172332,5.780581104,0.102404949,7.962396334,12.2205215,7.318605002,10.1319639,13.66293187,10.16257734,12.9003302,9.644850427,6.517610287,-0.865397699,-17.75097268,-5.403160224,-15.59640019,-9.31373098
-4.253107351,-8.079860007,-11.66720518,-4.550643748,0.647840789,7.80689107,10.88145424,5.854874815,7.831442708,11.75242186,8.817944553,13.06121073,8.696275206,7.41614247,-0.189360055,-13.91675168,-2.632942973,-10.349768,-7.816319778
-2.210197797,-2.9666504,-8.593996495,-11.76843979,1.06794722,6.779217256,8.548760288,4.202656978,5.215280844,9.429974866,5.637120917,10.69610053,6.665227802,7.323380064,0.518816482,-9.507333261,0.444170968,-5.203474567,-5.161770941
-0.396180025,1.61726006,-4.456891348,-12.38766957,0.973617569,4.996516583,5.959426933,2.232690099,2.978395098,7.453472912,2.172834378,7.368253778,4.080799139,6.671798504,1.357805264,-4.234810349,3.828061337,-0.382219454,-2.474047967
0.98939531,5.110528055,0.154137687,-6.353227291,0.173557538,2.868991743,3.523061082,-0.519972883,0.936008437,5.958742349,-0.696165627,4.897273894,1.52981879,5.711280115,1.716585854,1.04065181,6.896736712,3.362789893,-1.111719512
1.803114967,6.842623607,4.018189221,3.012294696,-1.200208988,0.899770397,1.192881248,-4.253295878,-1.640593942,4.483386253,-3.197874576,4.003847606,-0.662808242,4.485953433,0.839581827,4.57012754,8.70486627,4.923183843,-1.602328493
2.005309345,6.467355966,5.98550895,10.6475432,-2.818313524,-0.600981646,-1.371097133,-8.55281525,-5.274298465,2.39691306,-6.15736803,3.777872651,-2.666218175,2.993284332,-1.452182734,4.92583095,8.5942608,3.586131443,-3.143909617
1.702178396,4.34666455,5.690564207,12.31967785,-4.375546117,-1.660776468,-4.408059513,-12.53440317,-9.651920165,-0.507241297,-9.987250626,2.466222248,-4.974836922,1.361306602,-4.474277753,2.237909139,6.670281373,-0.194461602,-4.108598808
1.153179025,1.532540272,3.793893419,6.864147476,-5.709053433,-2.532553035,-7.688329447,-15.33496022,-13.6262861,-3.717098496,-14.06249166,-0.997231858,-7.856174534,-0.108349166,-7.069744411,-1.583074669,3.793019142,-4.687548985,-3.185947526
0.703924637,-0.736364599,1.562121043,-3.202458156,-6.747759073,-3.418650363,-10.4740691,-16.58668433,-15.93981557,-6.319731637,-17.06143156,-5.950966691,-10.84912635,-1.070938687,-8.38261749,-3.950563965,1.078651878,-7.679311593,-0.300397861
0.635521137,-1.736172549,0.043797335,-13.18562689,-7.392046625,-4.255482838,-11.9060826,-16.55508459,-16.18231382,-7.754642974,-18.01879699,-10.33738182,-12.82360901,-1.350741395,-8.410732535,-3.318548517,-0.752369173,-7.739331477,3.367581735
0.989980787,-1.680628521,-0.598243362,-18.98419816,-7.467297479,-4.728686488,-11.57259086,-15.86518665,-15.21320984,-8.372774025,-17.1708987,-12.18427562,-12.69899479,-1.080137944,-7.903625716,-0.273948555,-1.749019066,-5.119896954,6.213978366
1.487395111,-1.544332848,-1.113480515,-19.33742825,-6.798527628,-4.497915683,-9.819109803,-15.01060257,-14.59165549,-9.212620845,-15.78865745,-11.05706479,-10.3273606,-0.65566643,-7.69195957,2.821149304,-2.599542092,-1.641937043,7.218889425
1.630561792,-2.373932661,-2.502511787,-16.04033339,-5.327966543,-3.446496899,-7.515693073,-13.97740335,-15.31860918,-11.02319119,-15.05175232,-8.306321736,-6.8078477,-0.523478494,-7.995606469,3.416781105,-4.11632736,0.404439463,6.394369374
0.982208815,-4.54436774,-5.129632489,-12.08786362,-3.166833316,-1.767308483,-5.428624737,-12.24953378,-16.83553709,-13.29453328,-14.90623849,-5.919206537,-3.879575558,-0.924873009,-8.281410882,0.479234223,-6.691553082,-0.359450356,4.458674652
-0.5353401,-7.469868315,-8.272463212,-9.288090092,-0.552719982,0.155383781,-3.700816498,-9.230236347,-17.17362696,-14.22931286,-13.96656569,-4.935176908,-2.774063243,-1.764175213,-7.793708287,-4.867176399,-10.05717388,-3.631598651,2.148821225
-2.520381875,-9.96531071,-10.48618109,-7.267853038,2.221669109,1.944041453,-1.895792921,-4.83562617,-14.33198778,-11.92861507,-10.69063354,-4.737117309,-3.385338374,-2.680033618,-6.312993901,-10.14685908,-13.44540265,-7.730640041,-0.206852062
-4.261132229,-10.99744256,-10.56632652,-4.575791734,4.83575959,3.342140585,0.402976284,0.144734552,-7.955007251,-6.022689439,-4.929580308,-3.778870015,-4.408800543,-3.261736426,-4.480151433,-13.13848092,-15.9826892,-10.69360303,-2.569610725
-5.11310953,-10.30234203,-8.427950728,-0.734469957,6.932280657,4.188324125,2.953456627,4.241238526,0.001685673,1.569950473,1.489817293,-1.093043415,-4.349438723,-3.256073963,-3.359144449,-13.12662115,-17.04563848,-11.39423958,-4.775741291
-4.852307602,-8.466534701,-5.248919118,2.783789286,8.149669194,4.339194341,4.7911554,6.043753989,6.281389666,7.55722451,5.796025331,2.727584865,-2.617270179,-2.631379903,-3.551317334,-11.01298599,-16.40653209,-9.979399986,-6.329161767
-3.779897231,-6.474509812,-2.754218014,3.728416213,8.241588371,3.674469689,4.905344766,5.082346548,8.419159613,9.384442578,6.235515955,5.915638607,0.121071367,-1.487840742,-4.596466768,-8.396843003,-14.18730197,-7.474051447,-6.667006537
-2.524037359,-5.101073932,-2.154584018,1.425501405,7.218910137,2.222730067,3.165139217,2.256283562,6.419802623,7.022004506,3.428316934,6.945123472,2.546137272,0.072612962,-5.222642149,-6.445697906,-10.75882034,-4.99444184,-5.680128311
-1.689566731,-4.59047796,-3.502396196,-1.948939627,5.379658319,0.301743988,0.70325696,-0.570747475,2.736196805,3.014810192,-0.037182668,5.765262031,3.694959662,1.982954298,-4.33519992,-5.388175037,-6.685814116,-3.194448414,-3.990825529
-1.589961731,-4.785236174,-5.888497223,-2.706855245,3.159008359,-1.487119557,-0.677760964,-1.656993551,0.500329799,0.648448075,-1.540067573,3.811067825,3.555212835,4.123708469,-1.991215647,-4.841257549,-2.68871026,-2.25618216,-2.669133781
-2.20020979,-5.487828774,-8.242463752,1.179397863,0.894953546,-2.476700146,0.261653365,-0.486222184,1.291370663,1.561919569,-0.394403658,2.807588114,2.840673135,6.218463701,0.46656727,-4.489704697,0.485155394,-2.226288898,-2.547701762
-3.284538163,-6.672913743,-10.04890714,7.741249491,-1.290148284,-2.261601415,3.23251856,1.871191059,4.098979115,4.620119649,1.73151101,3.4070418,2.256165866,7.861861197,1.330423561,-4.430847632,2.325145325,-3.233995365,-3.65284678
-4.539449263,-8.345970498,-11.41916507,11.84638583,-3.372355985,-0.931327281,6.492663905,3.444240237,6.233618094,6.912439809,2.299494754,4.80524033,1.943857577,8.724149078,-0.129920969,-4.901129306,2.839988266,-5.315019878,-5.196162873
-5.639448797,-10.20448608,-12.54941413,8.990059126,-5.176536552,0.944126213,7.968028371,2.671071344,5.442958932,6.086161042,0.090290838,5.601186239,1.554614587,8.801864604,-2.941975699,-5.718380431,2.638025127,-8.01693546,-6.131352478
-6.219494675,-11.48130695,-13.14639247,-0.853487174,-6.264217413,2.567308647,6.616649065,-0.565797918,1.586424988,2.177314045,-3.703883251,5.078099379,0.77381188,8.495873103,-4.962217796,-6.057381245,2.657578023,-10.25517207,-5.845676519
-5.920717492,-11.22970602,-12.43141623,-12.64136229,-6.155478634,3.251107934,3.035583554,-4.916048218,-3.390946598,-2.483406555,-6.41134331,3.747825304,-0.275011488,8.394200614,-4.366241154,-4.887402052,3.634038643,-10.73728445,-4.477780928
-4.562851912,-8.93070044,-9.803721407,-19.7838974,-4.786662089,2.662296325,-1.106358982,-8.567666839,-7.082592408,-5.166353484,-6.112412756,2.697123935,-1.164656581,8.863148382,-1.034591447,-1.798238582,5.615477999,-8.779068106,-2.676401979
-2.341227876,-4.979880095,-5.60620214,-19.15479922,-2.828541429,0.883297317,-4.327239984,-10.53986858,-8.498105313,-4.88826459,-3.360490253,2.374716941,-1.698278895,9.728766877,3.208601788,2.451238932,7.863576489,-4.91876632,-1.053283263
0.154173963,-0.630186933,-1.257228779,-13.45553725,-1.500413643,-1.678651892,-6.29749201,-11.29800692,-8.703760618,-3.089692433,-0.960790752,1.979446959,-2.286491166,10.30403383,5.729392013,6.169052379,9.248356051,-0.780713481,0.217338831
2.208057567,2.656435185,1.515270795,-8.751336474,-1.867316913,-4.452319649,-7.809664087,-12.23057492,-9.764940041,-2.336357212,-1.915057521,0.083617116,-3.727043049,9.784433995,4.80982428,7.668113059,8.909848472,1.837811004,1.373746454
3.409477361,4.044157906,1.843790632,-9.002004151,-4.052125617,-6.87142876,-9.863676952,-14.39228249,-12.88312919,-4.122684003,-7.098042524,-3.989621589,-6.496904806,7.765597199,0.756522692,6.278584665,6.763915722,2.075605667,2.705924026
3.929304948,3.773108913,0.395904228,-12.15734338,-6.960173115,-8.526742666,-12.65848758,-17.48427147,-17.22302574,-7.54358459,-14.44232974,-9.235818285,-10.14936497,4.539726745,-4.34895977,2.739258044,3.529305555,0.532166338,4.199631293
4.389579828,2.9126559,-1.0284622,-11.39880079,-8.816104501,-9.27630738,-15.29864418,-19.87407896,-20.34134348,-9.87252777,-20.2314542,-13.36537838,-13.37674015,0.980496136,-8.005873925,-1.27448144,0.284286485,-1.177582808,5.477413511
5.362767267,2.604449933,-0.741832764,-0.954906035,-8.233409479,-9.263915947,-16.40846714,-19.67668451,-19.87140967,-8.568893407,-21.50445032,-14.30386554,-14.76444427,-1.889390976,-8.749999737,-4.120852216,-2.120854421,-1.521727948,6.0582138
6.851565917,3.336716737,1.646031706,18.07583111,-5.110720764,-8.805430862,-15.12727214,-16.11636278,-15.18975952,-3.157386554,-17.81516968,-11.63331945,-13.68456539,-3.355589584,-6.738725635,-4.996952262,-3.401781661,-0.017664875,5.706424852
8.164932839,4.737789111,4.976673201,36.88858517,-0.723569383,-8.178219568,-11.70804925,-10.1720518,-7.870855035,4.409719193,-11.19707954,-6.839025098,-10.65470076,-3.229969237,-3.234341275,-4.119888969,-3.759684098,2.591696412,4.599747139
8.337396416,5.970113733,7.389251221,44.38628672,3.070957682,-7.441819246,-7.312179229,-4.031585755,-0.680880929,11.09162416,-4.58530528,-2.197214481,-6.919424277,-1.771663639,0.425716566,-2.320641464,-3.542407298,4.99579318,3.210665985
6.823422041,6.371496961,7.606677233,35.08671243,4.974740175,-6.432206808,-3.232904339,0.259702637,4.104694998,14.73573565,-0.001080429,0.773984759,-3.620897732,0.541929236,3.521657484,-0.466488253,-2.974381427,6.242526424,2.010205931
3.96204656,5.858113841,5.716832748,13.52651292,4.958604591,-4.960738256,-0.165871426,2.011476323,5.904338393,15.27511503,2.247009761,2.085863323,-1.201134341,3.203169627,5.897453976,0.875650567,-2.162934847,6.233252015,1.203309646
0.851257408,4.848057841,2.952560778,-8.358252201,4.093589667,-3.079507103,1.984248875,2.149215531,5.860643124,14.43250115,3.055762258,2.774818454,0.579759689,5.747631586,7.455787345,1.43457766,-1.299752053,5.503398179,0.650850329
-1.298789095,3.859545545,0.7595319,-19.07411551,3.688575604,-1.190312058,3.739082509,2.401582708,5.848326909,14.32851752,3.425035254,3.703534118,2.155890629,7.780540337,7.847706055,1.096957288,-0.778709551,4.600278842,0.00043411
-1.877583941,3.158715569,-0.079846527,-14.87358568,4.382103836,0.130566853,5.495715998,4.022193533,7.206062033,16.05607714,3.727458364,4.762737563,3.681601025,9.048697767,6.725076242,-0.112757398,-1.025275684,3.648365301,-1.062124732
-1.152124617,2.722001518,0.328306599,-1.290554781,5.803789684,0.497291564,7.203162983,6.918088161,9.958435976,19.11313804,3.767635554,5.113766111,4.942534937,9.548579609,4.306373227,-1.9005815,-2.119344918,2.44980485,-2.572122916
0.054677406,2.465203062,1.4011197,11.78871912,6.958238096,0.000390221,8.420417121,9.722514905,12.87404689,21.87073628,3.296929813,4.136526967,5.621306671,9.554841671,1.629019548,-3.621154694,-3.538866197,0.947552008,-4.177509037
1.00426756,2.46064593,2.625388123,17.35824723,6.96937195,-0.824084794,8.622512824,10.70097387,14.21273705,22.60316463,2.363116306,2.130964997,5.587162653,9.472462567,0.082137374,-4.460381292,-4.321944681,-0.45238337,-5.239893885
1.507965199,2.906862501,3.760089018,15.30853226,5.632552558,-1.347410123,7.522198156,8.870759948,12.72227629,20.42406074,1.203243167,0.092602892,4.932742853,9.564517756,0.454551261,-3.865656075,-3.633687895,-1.060276944,-5.140150061
1.89749794,3.87334468,4.655511054,10.71460715,3.447194237,-1.271957692,5.259648417,4.642296312,8.396773606,15.70809172,-0.085290065,-1.229705792,3.787308691,9.751115587,2.233359806,-1.943266956,-1.372511995,-0.467008701,-3.666827178
2.583475225,5.072194181,5.043758113,8.583025118,1.214826722,-0.807203531,2.424225293,-0.366243405,2.627730741,9.919053883,-1.666902776,-2.097419352,2.167401876,9.662620493,3.788606027,0.502687356,1.643230492,1.003108037,-1.268270949
3.591202719,5.901170293,4.629025299,9.75122724,-0.444186316,-0.467025648,-0.096856085,-4.192597768,-2.384692232,4.98030921,-3.734235708,-3.605620223,0.058514991,8.943628222,3.421622668,2.379790231,4.099325995,2.386799992,1.036612654
4.444032678,5.767817409,3.416335803,11.09825106,-1.341312956,-0.655058072,-1.449943475,-5.567123501,-4.751928276,2.420538109,-6.18513289,-6.64552526,-2.356957867,7.589386111,0.559123903,2.920387046,4.96928283,2.703763135,2.122258959
4.463223602,4.453271017,1.884993696,9.24971596,-1.668868424,-1.369420591,-1.257270174,-4.560191416,-3.994114219,2.614833655,-8.585937336,-10.88767932,-4.601309521,6.042830821,-3.786743107,2.09065658,4.129037818,1.628620805,1.375391839
3.230711181,2.229612299,0.704553643,4.060945323,-1.792261789,-2.251801523,0.051837462,-2.506312513,-1.436964407,4.505714655,-10.49694676,-14.71513365,-6.107085255,4.950633928,-7.651631553,0.529030107,2.382781715,-0.325947519,-0.90691425
0.868394023,-0.355133089,0.15018242,-1.286415781,-2.060560184,-2.916353111,1.311655318,-1.251981612,0.463601044,6.073612711,-11.84708336,-16.27046831,-6.599501912,4.741523479,-9.400234712,-0.920344688,0.896908098,-2.260793037,-3.627487287
-2.033516281,-2.840343268,-0.244674132,-3.454666506,-2.697743251,-3.264253257,1.205087256,-2.128876599,-0.419716817,5.441661857,-12.9742774,-14.8455497,-6.325713129,5.333274007,-8.744650228,-1.745753387,0.449716481,-3.60577503,-5.482433865
-4.733437673,-5.072805117,-1.373155952,-2.281613996,-3.736927314,-3.513620413,-0.903042993,-5.214142048,-4.532952229,2.027073161,-14.27575206,-11.52619208,-5.90717828,6.177445639,-6.810711539,-2.03081267,1.004932315,-4.521848936,-5.681850952
-6.654013306,-7.13236674,-3.725991211,-1.09944025,-4.972636448,-3.929791996,-4.440189971,-9.3050684,-10.32960143,-3.022865018,-15.80980061,-8.567266588,-5.918506316,6.594956862,-5.279275473,-2.318118029,1.850371737,-5.683359008,-4.341449424
-7.523675004,-9.071249034,-6.735334992,-3.669509994,-5.984885806,-4.507380011,-7.860901639,-12.64168648,-15.27940281,-7.493888056,-17.24945026,-7.9469178,-6.537245784,6.151649884,-5.277822952,-3.220770265,2.13200776,-7.646254751,-2.308865176
-7.351734716,-10.72540579,-8.951161002,-10.46608862,-6.30589652,-4.902115554,-9.585311583,-13.95579433,-17.53014239,-9.497873048,-18.23406502,-10.14427136,-7.534064976,4.828668892,-6.801666485,-5.054860386,1.372113114,-10.33129203,-0.576623776
-6.353589506,-11.77373621,-9.058376955,-17.68524105,-5.696206435,-4.694735405,-9.024382089,-13.19233878,-17.03802426,-8.650971894,-18.74453099,-13.95925275,-8.553437381,2.931040233,-8.974218358,-7.692761676,-0.355904652,-13.02906224,0.297198091
-4.90241916,-11.98780345,-6.984367755,-20.00165394,-4.357064521,-3.775027999,-6.936653093,-11.4286066,-15.3460167,-6.189238707,-19.0761012,-17.38322743,-9.379492167,0.873267584,-10.8184005,-10.66181868,-2.621496247,-14.8901732,0.386106102
-3.474015965,-11.44108206,-4.156980267,-14.84282518,-2.884674851,-2.515502984,-4.820618692,-10.03768902,-14.20800398,-3.938456571,-19.38511671,-18.8087246,-9.936847558,-0.978135376,-11.89856131,-13.37659961,-4.96469237,-15.48198217,0.147449693
-2.513097534,-10.48302104,-2.585488015,-4.630683029,-1.934568278,-1.566947627,-3.785815157,-9.672038667,-14.14953319,-2.921786862,-19.26550015,-17.76370895,-10.08331402,-2.343675754,-12.39669351,-15.36420558,-7.09211513,-14.98006015,-0.008808826
-2.235283948,-9.491153713,-3.394509877,4.850987095,-1.801945554,-1.418576068,-3.773621091,-9.795330564,-14.10180703,-2.668155681,-17.874566,-14.84788113,-9.496682581,-3.027068089,-12.68562327,-16.39174447,-8.853869387,-13.89756073,0.015212529
-2.497661821,-8.607342028,-5.946268976,8.602631426,-2.230968179,-2.063061747,-3.739109685,-9.120671665,-12.38585189,-1.733343004,-14.6508288,-11.15348731,-7.878106238,-2.958908876,-12.83651894,-16.46783504,-10.1154632,-12.63164899,0.066212851
-2.879468772,-7.674815267,-8.278210623,5.757857507,-2.623260021,-3.025390631,-2.637175072,-6.658074922,-8.239443032,1.007401114,-10.05470898,-7.68988242,-5.346472801,-2.268890469,-12.48057589,-15.73563101,-10.69329729,-11.21027309,-0.002861139
-2.96810544,-6.418149893,-8.554171276,-0.317547059,-2.511930255,-3.722573927,-0.397190982,-2.608634413,-2.646967193,5.330414583,-5.606864284,-5.114306089,-2.623846131,-1.269823338,-11.10498897,-14.3146418,-10.41501955,-9.401083981,-0.148520957
-2.658348376,-4.706167836,-6.410654535,-4.866088098,-1.942820154,-3.862121226,1.926992056,1.572099706,2.198908023,9.698974937,-3.01840814,-3.710776838,-0.716841088,-0.280671733,-8.508948997,-12.18698712,-9.227264085,-7.023692271,-0.188286339
-2.222380055,-2.68180381,-3.157422258,-4.984152989,-1.455017717,-3.572675526,2.966574688,4.025169691,4.375857772,12.30749871,-3.00275795,-3.413457774,-0.238991304,0.617060211,-5.049981397,-9.225553803,-7.23911076,-4.17048165,-0.013441816
-2.069103011,-0.671759268,-0.712168055,-0.842431422,-1.656609386,-3.194465281,2.141840354,3.666977861,3.49215435,12.30376243,-4.726845965,-3.810468352,-0.907140602,1.670476835,-1.508198147,-5.385371269,-4.674645778,-1.178062227,0.260631454
-2.368038628,1.021302041,-0.157012652,5.4774018,-2.715342568,-2.938395273,0.142004386,0.86422446,0.785910431,10.27236081,-6.419007021,-4.251800915,-1.691501032,3.248174711,1.307775018,-0.94542075,-1.805849232,1.562702781,0.365390756
-2.847328341,2.258845442,-1.06955497,11.87496283,-4.165924732,-2.716955079,-1.627137409,-2.860608184,-1.928481322,7.689787957,-6.719581543,-4.161339634,-1.590049578,5.438775488,2.928773289,3.403254917,1.06156142,3.755570684,0.121642827
-2.954779188,3.041706823,-2.097003524,17.00875475,-5.201445239,-2.28732053,-2.182839866,-5.858912009,-3.574782251,5.854266178,-5.718075641,-3.420939325,-0.447291756,7.775793832,3.347751418,6.768536232,3.569291536,5.206992296,-0.356132001
-2.276958855,3.388994754,-2.198379016,19.68694389,-5.243532932,-1.572314174,-1.763011833,-7.377266097,-4.386461605,5.117122494,-4.841269434,-2.516926106,0.858750656,9.373240096,2.876837564,8.502907705,5.350166113,5.778231338,-0.675610586
-0.88403868,3.274931466,-1.458689836,18.22243204,-4.36512972,-0.870158588,-1.637656761,-7.876587944,-5.420913641,4.897944021,-5.687796635,-2.256692161,1.05178788,9.449918017,1.885443481,8.602683581,6.186548894,5.42508649,-0.400734787
0.693222831,2.706955912,-0.804333017,11.1233225,-3.244334932,-0.752754488,-3.099739893,-8.500025317,-7.562370776,4.309585096,-8.770864594,-3.220421538,-0.575962806,7.878299883,0.600308799,7.74758107,6.195562853,4.336798014,0.672707525
1.859637452,1.871854024,-0.933317295,-1.104085135,-2.677578434,-1.703887439,-6.456622458,-10.15110239,-10.87319157,2.812077048,-13.19065375,-5.381341775,-3.647061096,5.319219619,-0.933398726,6.890435309,5.856130782,3.008644924,2.396445944
2.42133675,1.184980085,-1.460591619,-14.83717643,-3.007784886,-3.755501472,-10.80874812,-12.86936446,-14.72427687,0.435528945,-17.45275798,-8.216725117,-7.043108305,2.798211044,-2.744913712,6.643277611,5.764819237,2.070105889,4.36226942
2.744758322,1.141659217,-1.08114592,-24.55790217,-3.882753437,-6.382692541,-14.73122356,-15.90005459,-18.41387924,-2.435891828,-20.66831801,-11.19626639,-9.790051807,1.027361953,-4.776575951,6.891050126,6.224989198,1.896671519,6.102021384
3.464955106,2.038326084,1.34629557,-26.11574408,-4.512820275,-8.72872216,-17.24766438,-18.30928928,-21.62399992,-5.382930169,-23.06451599,-14.16458207,-11.70432229,0.004061792,-6.779542428,6.924924402,6.95954013,2.282424544,7.239456278
4.956314519,3.756863729,5.710120467,-19.68156818,-4.234684367,-10.00829839,-18.30724578,-19.62208935,-24.33559416,-8.069614104,-25.37102367,-17.20706495,-13.242189,-0.790373638,-8.346977042,6.00510577,7.207240422,2.488419371,7.526807924
6.974276212,5.777236607,10.49690778,-9.863932717,-2.976278841,-9.844842905,-18.46104606,-20.01261278,-26.40846835,-10.15467929,-27.67619242,-20.09073414,-14.71944954,-1.766344032,-9.094305236,3.931421883,6.199279508,1.723101084,6.823872119
8.75208051,7.421669673,13.74848243,-2.556663257,-1.300549596,-8.378088882,-18.133293,-19.96706471,-27.35394102,-11.21903607,-28.86256891,-21.8642844,-15.66157405,-2.725928094,-8.902356037,1.191706135,3.707232316,-0.2547754,5.115367844
9.489519712,8.170733232,14.36981922,-0.789448168,-0.011294226,-6.140364585,-17.189517,-19.74428175,-26.60128622,-10.88051758,-27.26415096,-21.18875836,-14.96623284,-2.957403728,-8.068996206,-1.408290984,0.260258667,-2.874661798,2.58490225
8.874412759,7.855571764,12.75114956,-2.818927557,0.391991189,-3.814034143,-15.17743022,-19.08079332,-24.03259548,-9.027993094,-22.11696947,-17.37048747,-11.8483736,-1.896316146,-7.232355829,-3.319393438,-3.150944539,-5.075970098,-0.340950275
7.260552638,6.638232105,10.25077618,-3.979910046,0.029757478,-1.99142173,-11.97586711,-17.37084354,-20.26050342,-5.953214711,-14.61384504,-11.34822198,-6.796165601,0.189379987,-7.058458108,-4.563420626,-5.686290267,-6.009111002,-3.081952708
5.392654999,4.844787036,8.024438558,-0.769767154,-0.482367748,-1.003632553,-8.209886199,-14.18837132,-16.34206161,-2.250463415,-7.592496129,-5.702014353,-1.653703935,2.118945323,-7.861151308,-5.556786488,-7.143763643,-5.602416136,-5.12995062
3.904469966,2.7920502,6.189192376,6.18591254,-0.503119569,-0.841351471,-5.00153319,-9.77390642,-13.14674388,1.418590504,-3.933713156,-3.370959931,1.396308165,2.502090038,-9.408137827,-6.631681923,-7.973017534,-4.57298799,-6.28253337
2.963566989,0.706417885,3.974137738,12.68165521,0.149888605,-1.186146912,-3.224776852,-5.13411186,-10.92009835,4.485799897,-4.775914606,-5.781827146,1.269293179,0.758475888,-11.06688797,-7.691108495,-8.826884126,-3.888322749,-6.716908736
2.296802825,-1.266362844,0.652855959,14.44521282,1.03977179,-1.566851399,-2.88454507,-1.651441085,-9.394846826,6.479147406,-8.828454203,-11.69451471,-1.248083946,-2.329307449,-12.20294858,-8.300703581,-10.00975084,-4.104864452,-6.836362138
1.529506795,-3.024099283,-3.588206775,10.620117,1.395312371,-1.606772515,-3.149984597,-0.403498232,-8.280584964,7.00181557,-13.25417304,-17.70992741,-4.013050267,-5.013799034,-12.54103821,-8.125119443,-11.24319754,-5.079509006,-6.986272861
0.546411156,-4.492177626,-7.592403263,4.327217865,0.660535723,-1.248178604,-3.02603335,-1.570032365,-7.614677784,5.876192444,-15.45136007,-20.24950522,-4.984278609,-5.709977133,-12.21565741,-7.306397683,-11.90452038,-6.224203753,-7.233112723
-0.405878711,-5.624579014,-10.01763917,-0.060549046,-1.060797608,-0.806228707,-2.120375278,-4.272230617,-7.621569167,3.435315523,-14.48640134,-17.73270049,-3.563604488,-4.060050799,-11.48670454,-6.428847953,-11.52256394,-7.034742688,-7.351116631
-0.936226425,-6.394602784,-10.29233043,-0.531395435,-2.983494671,-0.77962142,-0.899090008,-6.967533992,-8.251032876,0.673988079,-11.30569128,-11.48452787,-0.868784173,-1.162562152,-10.38552398,-6.078642217,-10.13352699,-7.438231055,-7.008993865
-0.861145836,-6.774963464,-8.965990926,1.127037246,-4.090061848,-1.505716106,-0.259463818,-8.22325923,-8.934602506,-1.051924157,-7.808769714,-4.77554004,1.194005366,1.203015075,-8.634865866,-6.367158415,-8.238213407,-7.70669048,-6.013940844
-0.414760044,-6.740920829,-7.216188213,1.186917865,-3.779300832,-2.879846252,-0.79828003,-7.465049083,-8.928806844,-0.759982222,-5.609194409,-0.694570148,1.311602593,1.793648363,-5.95884037,-6.82711351,-6.430433344,-8.078550063,-4.449901899
-0.153391154,-6.317196996,-5.963945411,-2.565875951,-2.286849027,-4.345669422,-2.361259135,-5.27478831,-8.030125522,1.44421267,-5.322906151,-0.32216918,-0.409837839,0.694471102,-2.537296118,-6.773653126,-5.011044823,-8.466041564,-2.641110446
-0.612396705,-5.630747714,-5.311285605,-8.774891108,-0.576199243,-5.191619491,-4.182786086,-3.039791376,-6.9954798,4.25763631,-6.632874145,-2.370764806,-2.680970237,-0.844603888,0.823674997,-5.826659127,-3.87790677,-8.512432877,-0.994468613
-1.939704865,-4.890610644,-4.672850618,-13.55589929,0.258745169,-4.973029345,-5.434679308,-2.13055397,-7.150307776,5.894868497,-8.768922783,-4.36407622,-4.020086227,-1.351714639,3.048262852,-4.161578354,-2.733721402,-7.92244461,0.16668473
-3.739293168,-4.255441534,-3.373827275,-13.65887262,-0.297756415,-3.782007805,-5.719568343,-3.089616516,-9.348263424,5.222036787,-10.90397489,-4.388127545,-3.708279615,-0.145396239,3.483928837,-2.302263047,-1.40148548,-6.738781803,0.695039943
-5.220775169,-3.656810625,-1.156582265,-9.018653305,-1.834665414,-2.187238774,-5.172327218,-5.335642087,-13.08386807,2.526252055,-12.29524792,-2.196474893,-2.082142738,2.27968319,2.412317452,-0.667364495,0.017819989,-5.299067054,0.627779147
-5.568871787,-2.729641534,1.778076544,-2.59489833,-3.267296878,-0.893269102,-4.207575741,-7.574668012,-16.55844247,-0.650711794,-12.36716657,0.924072024,-0.121654401,4.684735565,0.936598046,0.721080733,1.248042018,-3.913987184,0.148751852
-4.330088212,-0.966038422,5.096059179,2.218633724,-3.528479314,-0.355597641,-3.219502155,-8.647991053,-17.79300912,-2.515683684,-10.94997172,3.192692084,1.21859759,5.944524205,0.262039537,2.128483376,2.081249256,-2.573632512,-0.461129921
-1.619007332,1.946668356,8.612692167,4.301205457,-2.234484089,-0.599112488,-2.487569436,-8.248561758,-16.02315172,-2.156231781,-8.571133943,3.425506946,1.44183676,5.703795804,0.872683988,3.731627113,2.545723921,-0.972017598,-0.880783993
1.945344072,5.807725117,12.23861183,5.337543023,0.114779944,-1.324543404,-2.266753719,-7.028270984,-12.32020066,-0.022844852,-6.430107638,1.511111874,0.543494083,4.440264747,2.218025321,5.341312815,2.871963522,1.144617777,-0.824632872
5.519602589,9.842651094,15.68547863,7.852831636,2.510562673,-2.181509114,-2.835383316,-6.047271868,-8.930334424,2.510214139,-5.820815861,-1.795345164,-1.167299804,3.009163195,3.148676632,6.476811603,3.304684429,3.597600945,-0.134362061
8.376970532,12.9924517,18.30207811,12.57916853,4.095196706,-2.990661217,-4.336228461,-5.978320268,-7.786021584,4.111442061,-7.247675131,-5.361858099,-3.206409552,2.074303988,2.768432702,6.706105441,3.915492526,5.703682143,1.142656292
10.1396317,14.41093532,19.30478228,17.47944178,4.640314883,-3.769201421,-6.502906393,-6.635917696,-9.25628952,4.283956937,-9.874815755,-8.052942897,-4.954462524,1.815486743,1.061638917,5.925865421,4.539839127,6.609041765,2.729273607
10.8091178,13.87914856,18.28302066,19.24973936,4.541835261,-4.581142326,-8.549905618,-7.141345222,-11.99086788,3.514605659,-11.83623211,-8.910940561,-5.732303547,2.023376332,-1.143452025,4.339286109,4.85045869,5.80418397,4.175318253
10.62039177,11.89208185,15.56365436,15.98192195,4.398773302,-5.361471809,-9.424071926,-6.565359779,-13.87917037,2.826922936,-11.32601435,-7.324416388,-5.022438445,2.406963736,-2.778279127,2.208190835,4.497531406,3.457160154,4.990905809
9.838848524,9.379973083,12.09078556,8.731657473,4.529792207,-5.863641267,-8.325342446,-4.5679813,-13.36923009,3.143229643,-7.754151515,-3.295078957,-2.743326685,2.848795091,-3.186706576,-0.313147677,3.246494918,0.348173478,4.820091455
8.632529249,7.243658282,8.865595635,0.733128088,4.780710992,-5.770663392,-5.161484474,-1.606458169,-10.25363949,4.840255441,-2.138354412,2.358329118,0.659436182,3.458249852,-2.343816037,-3.053722308,1.087348265,-2.523482277,3.594505791
7.08050497,5.964842172,6.357463106,-5.004569167,4.716668628,-4.887010745,-0.624570406,1.366551111,-5.548573117,7.621472516,3.55734953,8.156094601,4.439466967,4.449012344,-0.587734285,-5.547824134,-1.697112525,-4.395078253,1.597273668
5.274571636,5.466297148,4.327040487,-7.708618456,3.999304673,-3.280895693,4.150608264,3.439092447,-0.770308841,10.63043137,7.642699257,12.56154091,7.952212689,5.960006479,1.763697998,-6.98422458,-4.546831735,-5.016718205,-0.614067623
3.408863622,5.233657525,2.17376085,-8.904227032,2.649769958,-1.293091939,8.09595277,4.142162452,2.793209433,12.73518707,9.586867499,14.7213607,10.90940895,7.921023843,4.501083115,-6.620294379,-6.779670798,-4.673159117,-2.420331217
1.772784128,4.59119744,-0.484789906,-10.66124952,1.040126772,0.582014871,10.56479026,3.538846628,4.443692955,12.98913071,9.98242379,14.82357616,13.27318562,10.00659283,7.272528279,-4.443364473,-7.875635428,-4.018012222,-3.403967359
0.645344092,3.002370368,-3.447036202,-13.61051954,-0.313834946,1.872790167,11.38835399,2.082511728,4.111962076,11.20163351,9.750109014,13.78542916,14.91195644,11.69350903,9.359113908,-1.503213343,-7.75652144,-3.811357013,-3.524056778
0.166361996,0.304799426,-6.020872148,-16.36020954,-0.968802246,2.28498662,10.73773431,0.429601054,2.306750115,8.325886037,9.320318357,12.50251147,15.39318989,12.43273418,9.882280431,0.533962337,-6.859684631,-4.612432551,-3.091546948
0.273606189,-3.176745604,-7.460819027,-16.66927999,-0.659784766,1.785817732,8.991018755,-0.706935793,0.046950125,6.254427973,8.464823288,11.25638019,14.20057637,11.91052638,8.443947178,0.463499232,-5.893407306,-6.486290675,-2.548671331
0.741514875,-6.685491319,-7.405975788,-13.29735105,0.673417109,0.60314817,6.693660142,-0.721450784,-1.380191165,6.873641689,6.835382683,9.74815321,11.27433006,10.29088494,5.704783045,-1.495195428,-5.382174375,-8.857364182,-2.191670065
1.286606872,-9.275608606,-6.032143909,-7.021017392,2.845159787,-0.853833785,4.524911114,0.641463846,-0.962641125,10.80094676,4.635814438,7.682462429,7.413998387,8.269213734,3.301296785,-3.656952868,-5.301508721,-10.67482151,-2.025584588
1.673477449,-10.18382453,-3.877744826,-0.116584334,5.358389701,-2.132531168,3.137752254,3.053529721,1.386427592,16.66440775,2.747455593,5.332992672,4.096055458,6.82055775,2.955867933,-3.930451531,-5.0876122,-10.92487679,-1.848274471
1.777456584,-9.170023574,-1.520149387,5.135054078,7.429786351,-2.895262331,2.876152949,5.597369973,4.555733776,21.61127025,2.125705906,3.525218392,2.686412825,6.709712651,5.313363481,-1.294300197,-4.05713468,-9.263629866,-1.483867698
1.601457546,-6.634067186,0.678761005,7.713239288,8.225055123,-3.041218953,3.553371599,7.13078186,6.710903455,22.92520452,2.953534998,2.997516425,3.547239791,8.030742722,9.366007042,3.399048645,-1.956951505,-6.354885856,-0.962686806
1.262734816,-3.414797771,2.64674855,8.056422797,7.2606114,-2.736041288,4.504919897,6.887009985,6.362003028,19.74842941,4.300727534,3.699467289,5.711203488,10.09069113,12.97592854,7.943290271,0.766262992,-3.595411929,-0.486383034
0.953416685,-0.368117359,4.515157794,7.29983222,4.731760498,-2.326943368,4.950836049,4.931545796,3.339831211,13.68355785,4.66248965,4.710325116,7.441188816,11.76791755,14.20160199,10.28909194,3.20531574,-2.301382038,-0.202685142
0.868735743,2.029518433,6.455459954,6.333464107,1.499558889,-2.177392105,4.453990779,2.129538219,-1.042728794,7.775963238,3.039067165,4.957175629,7.351201053,12.1611834,12.50862928,9.943759753,4.594081118,-2.851247435,0.007497842
1.118240263,3.820566494,8.521503209,5.402143971,-1.319299243,-2.500716435,3.161475378,-0.384012884,-4.809387697,4.564345429,-0.248877042,4.1860435,5.324138863,11.12587686,9.01249181,8.228067536,4.84076362,-4.385384923,0.517668444
1.673556231,5.396338249,10.56833481,4.37560466,-2.912672391,-3.275733679,1.662887657,-1.853980786,-6.542308505,4.608170175,-3.65214775,3.33125504,2.576129091,9.345338453,5.625471699,7.230179123,4.597526067,-5.316942019,1.688758568
2.410430827,7.17362342,12.30355695,3.271836585,-3.102232266,-4.284092506,0.580247631,-2.19894797,-6.117352255,6.541015778,-5.365506051,3.85958867,0.815849252,7.88945987,3.790125953,8.284120483,4.809011981,-4.335863904,3.548985167
3.240588502,9.350245145,13.4719093,2.532326864,-2.232737008,-5.243075255,0.192191444,-1.770271748,-4.458689309,8.503054053,-4.498616135,6.525510045,1.08934761,7.557295224,3.735745462,11.12276039,6.06599356,-1.221832829,5.69578028
4.236269551,11.86437345,14.06877844,2.866580095,-0.765127038,-5.956954587,0.343523908,-0.852461091,-2.608426483,9.724235025,-1.623345753,10.54462979,3.112723516,8.436584482,4.71035856,14.27370874,8.22483314,3.082162564,7.530304838
5.615805926,14.49694925,14.4005271,4.843336219,1.047889321,-6.402463619,0.655440339,0.602440946,-0.93329056,10.95161806,1.657121874,13.94801487,5.530328345,9.945625535,5.842226406,16.27437399,10.54029343,7.139263643,8.657223949
7.543441513,16.96057542,14.86971897,8.522045431,3.123083725,-6.702881338,0.832484137,2.74261952,0.886166974,13.41641981,3.768069482,14.95735915,6.876157943,11.28157334,6.836266347,16.68896689,12.17322028,9.902650679,9.128824697
9.859762765,18.88949401,15.5755929,13.29933878,5.222601782,-7.00985349,0.829087545,5.312330971,3.157974585,17.29290065,4.091387274,13.35071702,6.544511601,11.93572047,7.957525056,16.16859091,12.67901121,11.1765891,9.328102028
11.967684,19.80059092,16.03381006,17.98924892,6.724945807,-7.368127558,0.791990184,7.415413574,5.483494142,21.05739898,3.161382005,10.7093928,5.114789596,11.93129872,9.440702357,15.64106324,12.14436457,11.39781674,9.585841338
13.03409691,19.16902599,15.31872712,21.09900987,6.827937201,-7.653562647,0.883736663,7.912451642,6.775526441,22.4130112,2.095559258,9.269290798,3.862290499,11.67247496,10.97334573,15.41516535,10.94541567,11.02291762,9.858238817
12.44200952,16.66558295,12.6430356,21.26397583,5.135147216,-7.635045257,1.158031659,6.264080697,6.062137717,20.1092289,1.755555581,10.21013914,3.848931035,11.57332246,11.79224176,14.96520487,9.389168637,10.07021752,9.747036979
10.2049032,12.41760516,8.003325464,17.75785865,2.171775695,-7.132777446,1.568704127,3.163193484,3.422528524,15.17170418,2.245411479,12.70641822,5.232032103,11.75762762,11.32629218,13.49572692,7.544986326,8.16102357,8.850548873
7.02816981,7.065741142,2.371997708,10.89300945,-0.673732321,-6.174175284,2.055938086,0.348150452,0.219657833,10.46054267,3.01982045,14.50876906,7.220999304,12.01921787,9.775702797,10.69330616,5.362968197,4.94534318,7.140952751
3.929013635,1.508675918,-2.802836687,2.088673023,-1.884441161,-5.035619708,2.597253184,-0.422387978,-1.671558064,8.786744862,3.396549061,13.63889282,8.641096636,12.01519568,8.038092762,6.963118984,2.911452501,0.490787562,5.031205732
1.654232555,-3.519811591,-6.484275089,-6.491031941,-0.772424161,-4.124041458,3.17288375,1.430489676,-1.126299946,10.97431863,3.019028135,9.903785599,8.676963969,11.50851734,6.971900875,2.987797633,0.477182292,-4.692999345,3.062498574
0.306840767,-7.730299779,-8.647474176,-12.60458895,2.041107812,-3.761810749,3.697584755,4.810681393,1.416684247,15.32329033,1.951370729,5.072979223,7.31150746,10.48571345,6.614364374,-0.887221887,-1.577008835,-9.949120919,1.482517989
-0.547730059,-11.18869074,-10.08221132,-14.63294513,5.020196512,-4.015212058,4.007993455,7.574240679,4.214505574,18.85873365,0.447202436,1.608542321,5.238695269,9.111248066,6.075337482,-4.772714409,-3.059721054,-14.75237727,0.093952872
-1.387135088,-13.92820235,-11.50673324,-12.07004568,6.73369844,-4.686313953,3.936141971,7.88616682,5.377057144,19.40652936,-1.304261363,0.952799628,3.389663386,7.611278392,4.286400701,-8.689006777,-4.057226774,-18.69781781,-1.47664726
-2.244136824,-15.59643963,-12.70093127,-5.697984376,6.766502624,-5.473720958,3.411073349,5.374483684,4.093431849,16.97135017,-3.195165056,2.674520611,2.418676909,6.201306493,1.041176131,-11.88910642,-4.776945013,-21.26439124,-3.316302391
-2.616463986,-15.47158085,-12.4206742,2.576984897,5.863955606,-6.180515523,2.500771135,1.296430459,1.084399021,13.50105183,-5.00305926,5.037356514,2.443320329,5.087424812,-2.544845443,-12.82793521,-5.255927401,-21.70016628,-4.988028923
-1.84865957,-12.89570685,-9.263122988,10.25961927,5.238959426,-6.810081002,1.360482967,-2.352589252,-1.969051508,11.36198954,-6.257834648,6.412477949,3.110111034,4.474875663,-4.613616991,-10.05571839,-5.211007239,-19.30791657,-5.762779982
0.318965504,-7.826408053,-2.864183115,15.15842198,5.60831645,-7.481552705,0.133822068,-4.122346386,-3.553372878,11.73185774,-6.425061141,6.349997166,3.849554993,4.506311254,-3.825604189,-3.469005495,-4.212577556,-14.02876024,-5.162596324
3.471430501,-1.088724621,5.520884937,16.38492878,6.704652537,-8.249651695,-1.116117736,-3.90557087,-3.22345012,14.01593765,-5.362199768,5.519526019,4.128984248,5.136459171,-0.3851743,5.097429434,-2.091383881,-6.868075782,-3.372040291
6.724666986,5.876700501,13.56570127,14.89871129,7.59837881,-9.000924934,-2.406615885,-2.794721702,-1.748383545,16.50514352,-3.68430007,4.748253617,3.602018421,6.048412571,3.938234109,12.56546862,0.738036423,0.27386484,-1.164013482
9.238848992,11.60040865,19.18420491,13.02522259,7.507421693,-9.53666063,-3.786159337,-2.230636689,-0.530851449,17.59445957,-2.634813691,4.13473023,2.1740017,6.728824772,6.825919511,16.25486757,3.334584398,5.385263015,0.6164872
10.63000893,15.11179053,21.63599628,12.92521081,6.408561435,-9.782776147,-5.277738761,-3.103199717,-0.757845689,16.64219735,-3.386764474,3.064783003,0.039126164,6.715511185,6.756243986,15.35864162,4.697897914,7.270783491,1.598690888
10.98650568,16.11216568,21.63353942,14.87271524,4.975779935,-9.93218837,-6.833354526,-5.364835908,-2.792228132,14.02880215,-6.177362743,1.065899236,-2.316268935,5.884643007,3.79083875,11.21364462,4.358216492,6.011908912,2.029819374
10.55241414,14.81451826,20.47549636,16.68213147,3.957862329,-10.35480555,-8.296428293,-8.25747934,-6.060018859,10.65353642,-9.91937664,-1.38148329,-4.217553311,4.577001105,-0.626771449,6.214868021,2.683189041,2.685694428,2.430077656
9.420291786,11.71617882,19.00081197,15.07724629,3.565883852,-11.3005521,-9.384396071,-10.83843328,-9.380257144,7.412439551,-12.69001119,-2.9561649,-5.0575583,3.444232553,-4.586687757,2.224505056,0.676075516,-1.382605958,3.084979974
7.53516633,7.532221464,17.23362453,8.356192976,3.393577787,-12.62112425,-9.73568784,-12.41017477,-11.5154303,4.981420384,-12.89081566,-2.569854239,-4.616596393,3.083210255,-6.670920829,-0.352222557,-0.61044259,-5.248650448,3.8202911
4.98995402,3.253248193,14.9179142,-1.583875096,2.902372479,-13.76566272,-9.05364748,-12.67932339,-11.70510282,3.813015965,-10.33172899,-0.495026626,-3.235719859,3.686122788,-6.420404037,-2.251809087,-0.658798275,-8.454303671,4.230895442
2.283906562,0.075686203,12.31963469,-9.732306176,2.005100158,-14.11149045,-7.30050197,-11.72517957,-9.99273683,4.080607811,-6.45305603,1.542546327,-1.659476971,4.940561688,-4.234583794,-4.235248094,0.301143578,-10.70010052,4.116882792
0.210126992,-0.980033692,10.43230439,-11.125947,1.20745847,-13.41217511,-4.806953139,-9.925139982,-7.213033289,5.496834501,-3.450952264,1.586918561,-0.575575409,6.249403404,-0.988978332,-6.19964124,1.549868314,-11.55037727,3.695484372
-0.639753376,0.368251643,10.28078542,-4.636026763,1.168847832,-12.01278025,-2.169069242,-7.871647438,-4.606640136,7.229839829,-2.852734074,-0.886033759,-0.13696763,7.116249093,2.320877043,-7.265474751,2.38206846,-10.5621218,3.373924744
-0.389849771,3.330121376,11.88618226,5.573976242,2.065110634,-10.62897423,0.057465313,-6.210192137,-3.201729052,8.183320947,-4.524443369,-4.252706191,0.163274598,7.423375886,4.815086839,-6.69936435,2.494841292,-7.777074835,3.290153042
0.039869022,6.292925955,13.85169851,12.45366961,3.319317309,-9.821004347,1.674916488,-5.377277141,-3.276077331,7.608105156,-6.82867193,-5.715237432,1.102078524,7.410123851,5.91912434,-4.802604136,2.029203836,-4.098422267,3.068802577
-0.562966171,7.618705463,14.07271291,10.951098,3.955850496,-9.555022245,2.921998171,-5.371377469,-4.235371438,5.648173025,-7.840406124,-3.371195281,3.048525422,7.386872354,5.541959272,-2.928403658,1.313809598,-1.080318335,2.068544644
-2.929966512,6.51321047,11.13099973,1.824823649,3.300498752,-9.209089423,4.213498356,-5.758940357,-5.024549989,3.36238946,-6.75292465,2.170871998,5.502332759,7.423675371,4.130426636,-2.539031087,0.567732031,-0.117004661,-0.045320566
-6.820630023,3.388576424,5.3138623,-8.680183373,1.45667505,-8.053600155,5.714294955,-5.978859706,-4.833304966,2.112719427,-4.448613051,7.940837501,7.264330318,7.272927055,2.462375956,-4.039386998,-0.194639767,-1.554465587,-2.888753707
-11.16663186,-0.511882178,-1.54462894,-13.31514508,-0.815752978,-5.861414053,7.093503348,-5.753702548,-3.622858598,2.702018489,-2.810505974,10.52721827,7.210996404,6.598196414,1.224814748,-6.33892759,-1.01781289,-4.39775894,-5.492059506
-14.72369295,-3.919528352,-7.26855387,-9.174551374,-2.683456502,-3.180883877,7.703034945,-5.281674747,-2.098529022,4.866101268,-3.279263761,8.408178932,5.156221982,5.327075763,0.651425919,-7.529738031,-1.796168382,-6.893205987,-6.911981975
-16.72851273,-6.172566287,-10.63338706,0.254694901,-3.771104649,-1.045073329,7.093400939,-5.027927295,-1.145258171,7.480021497,-5.726973152,2.987131031,2.141606003,3.827755037,0.509873586,-6.193926185,-2.229400753,-7.617810474,-6.842986617
-17.09542633,-7.257732784,-11.77028949,8.02669005,-4.205389256,-0.315374345,5.473776184,-5.266203646,-1.145883649,9.31823092,-8.493030904,-2.414444264,-0.139309817,2.732928644,0.46010558,-2.372620515,-2.016821792,-6.318382006,-5.737629424
-16.09557708,-7.356360166,-11.49488865,9.355389206,-4.192159137,-1.137048788,3.71209862,-5.759189837,-1.696503186,9.822784928,-9.569678357,-4.834031412,-0.441659148,2.515581065,0.469362157,2.494219259,-1.139867524,-3.923391349,-4.35716916
-13.88988546,-6.391050112,-10.28135983,5.363596485,-3.575390715,-2.897621744,2.801356531,-5.880866919,-1.932682174,9.367982211,-8.072922225,-3.537027975,1.176138018,3.138516105,0.892110302,6.562010162,0.022331681,-1.763960845,-3.152967565
-10.37438702,-4.021946365,-7.842861662,1.844004936,-1.8451176,-4.694766594,3.149350323,-5.12143968,-1.212016062,8.903561674,-4.922312982,-0.184192329,3.382708195,4.068006783,2.114901156,8.748956096,0.886925806,-0.610492828,-2.008599393
-5.477900983,-0.095903152,-3.663429162,4.012940094,1.351820918,-5.941340503,4.23079857,-3.573908828,0.371349663,9.285508644,-2.233455289,2.666801668,4.498818451,4.667751748,4.085670366,9.262137767,1.065066259,-0.226394514,-0.538619403
0.387327363,4.894269389,2.079265138,11.66200789,5.629617177,-6.655724043,4.901316641,-1.983186619,2.026323257,10.75535048,-1.863371514,3.474755451,3.66193586,4.679982036,6.197616702,9.209657779,0.67207165,0.290025864,1.361975147
6.193222264,9.828875721,8.139787981,18.93519722,9.766823291,-7.256439053,4.177472669,-1.28030194,2.812691111,12.84844329,-4.150568014,2.604232345,1.385489406,4.409006053,7.701060467,9.698943658,0.295213624,1.705220235,3.247410205
10.70079965,13.54081496,12.82999764,19.16927362,12.28850336,-8.074115173,1.92028973,-1.950164222,2.268474303,14.69283566,-7.73216333,1.657183589,-0.887914939,4.440924846,8.311824581,11.11486551,0.610238548,4.028599184,4.404369299
13.15589883,15.52930496,15.17468453,10.89294703,12.35882224,-8.996386876,-1.08124422,-3.730653167,0.648431986,15.45061288,-10.53978212,1.935240051,-1.893599987,5.104572352,8.441910766,13.02504308,1.909698415,6.511926295,4.454154681
13.74841008,16.22256837,15.60782457,-0.144468779,10.32590311,-9.524351116,-3.680611399,-5.876837524,-1.375096051,14.6570799,-11.25295273,3.304081045,-1.484977651,6.108143178,8.768289647,14.6388814,3.888612285,8.206682816,3.73218486
13.4582864,16.55128499,15.57608811,-4.963241816,7.496207625,-9.172258316,-5.16016126,-7.75914705,-3.280112883,12.35189499,-10.20063247,4.297094394,-0.723167891,6.674787523,9.465836141,15.37962334,5.850312509,8.609193564,3.079890829
13.37864656,17.16499487,16.35098548,1.565680316,5.296803257,-7.873558624,-5.644573016,-9.286838653,-5.069374908,9.027067073,-9.114931066,3.280624823,-1.076160253,6.116291176,9.813811205,15.15457658,7.179935237,7.911881005,3.196799938
14.00982194,17.93032977,18.0429466,16.23402604,4.444261136,-6.073037002,-5.855047941,-10.79632065,-7.155231272,5.464370094,-9.929326864,-0.263488247,-3.330344336,4.421912954,8.643482531,14.22781476,7.728970093,6.729233597,4.097576097
15.03155586,18.12093134,19.64262264,29.42206391,4.709744792,-4.451117286,-6.429255519,-12.50202087,-9.844924858,2.52291095,-13.42702939,-5.263504881,-6.98487718,2.393743558,5.371257368,12.91109779,7.826072466,5.573836314,5.142231666
15.67912891,17.12774101,20.02358004,32.15248228,5.381637428,-3.510978783,-7.351981937,-13.99798244,-12.83067144,0.921214805,-18.60402016,-9.641248024,-10.50761825,1.184135908,0.768951174,11.36116478,7.925953462,4.50758482,5.614864
15.38685329,15.07465038,19.00329469,22.78568931,5.980186799,-3.336321118,-7.933640118,-14.29304203,-15.10776834,1.054241781,-23.13238944,-11.46746656,-12.2201129,1.543520562,-3.276225921,9.607994957,8.195999306,3.204804832,5.345945458
14.18619398,12.79824313,17.51208357,8.060204399,6.612008731,-3.659245413,-7.342521888,-12.45245876,-15.46018461,2.875715023,-24.63795701,-9.936804063,-11.21041418,3.316028514,-4.972544617,7.722947203,8.386297244,1.322719737,4.83122569
12.5775053,11.18538039,16.70856256,-2.317370401,7.687369395,-4.126067957,-5.285819734,-8.422315249,-13.26064923,5.855655211,-22.05178849,-5.683460306,-7.762145601,5.542652562,-3.921362753,5.946428648,8.090941509,-1.142620978,4.741451425
11.02593368,10.41055448,16.81753929,-3.165064053,9.274157636,-4.524085144,-2.34617327,-3.419279223,-9.086022663,9.019949978,-16.28412034,-0.432023746,-3.176618826,7.082908155,-1.45410469,4.665731688,7.177176595,-3.784570713,5.259003207
9.512737369,9.714832108,16.73127011,2.568787268,10.67773684,-4.815123406,0.250864241,0.467857063,-4.706515231,11.10894396,-9.857717652,3.726392297,0.791297629,7.2949939,0.320496632,4.265812326,6.007806268,-6.023527959,5.842097566
7.499072855,7.935077176,14.77271424,6.801991308,10.66501527,-5.012070953,1.268242066,1.289196567,-2.346566701,10.91119189,-5.691027182,5.124178174,2.578341641,6.304664161,0.04568489,4.954606091,5.244036772,-7.451831135,5.651540664
4.321159,4.387020714,10.0251107,3.235883001,8.237898249,-5.057365428,0.086590407,-1.732277326,-3.551382027,7.760109085,-5.659018279,3.155143953,1.347579922,4.736741308,-1.981936582,6.656615381,5.365809324,-8.036227019,4.291482724
-0.281893915,-0.57244869,3.144587223,-7.563823224,3.415789153,-4.824985205,-3.010594556,-7.751711719,-8.275684742,2.015258248,-9.676399878,-1.43071616,-2.675545968,3.193761609,-4.238654111,9.017875913,6.296524814,-8.063874004,2.223881028
-5.870704743,-5.711875961,-3.994665452,-18.94958581,-2.547065756,-4.228627312,-6.98771001,-14.68058754,-14.75399426,-4.792492359,-15.7853063,-6.766575443,-8.168360351,1.916577034,-5.323722607,11.52125271,7.452527732,-7.90702049,0.478635344
-11.40606889,-9.654373609,-9.504352434,-23.8711406,-7.691348208,-3.317928722,-10.50008787,-20.14987663,-20.30611104,-10.41087761,-21.20228303,-10.68517478,-13.10675614,0.850929238,-5.058776541,13.67848011,8.195852095,-7.78313413,-0.120740794
-15.64690633,-11.59898469,-12.54883173,-20.46650208,-10.30034674,-2.26803532,-12.39814249,-22.52198978,-22.68264679,-12.84231035,-23.74933878,-11.80795688,-15.58428088,-0.028487637,-4.398973404,15.22663825,8.327317054,-7.653578857,0.42342684
-17.6063508,-11.542218,-13.47644257,-12.88241754,-9.680862559,-1.27702125,-12.10891741,-21.45709947,-21.19396467,-11.36328551,-22.86349802,-10.28465036,-14.74007396,-0.4959941,-4.279469612,16.22311355,8.205049754,-7.291898526,1.333634164
-16.86946008,-9.962416596,-13.06192632,-6.906515603,-6.34991163,-0.467058464,-9.798022458,-17.83667869,-16.9519238,-6.938157133,-19.61930863,-7.62172047,-11.24696529,-0.19237826,-4.492426658,16.95321295,8.370067239,-6.454698756,1.727643349
-13.70140515,-7.351067493,-11.64895405,-4.506413564,-1.615045839,0.135231046,-6.277679953,-13.19068668,-12.08186752,-1.676295074,-15.80448892,-5.589518989,-6.942959916,1.015268442,-3.702957003,17.66817291,8.974238248,-5.055550807,1.335126075
-8.958724192,-4.015680527,-8.983189997,-2.24995728,3.107616872,0.553550722,-2.680581722,-8.978667265,-8.417228186,2.391374075,-12.69434703,-4.908023687,-3.718952545,2.773164273,-0.712436064,18.30856941,9.495353572,-3.264907154,0.654871698
-3.830547252,-0.246088441,-4.823944759,4.912037111,6.82356251,0.826538093,-0.002126279,-6.071102107,-6.527395787,4.430705776,-10.3629107,-4.700728002,-2.355364229,4.356662754,4.091517078,18.4248056,9.018458579,-1.499216922,0.43297342
0.550399322,3.437095292,0.324664023,17.85451975,9.127707759,1.026396372,1.295325155,-4.614542439,-5.691630656,5.064109405,-7.98428512,-3.236179433,-2.141081921,5.116934119,8.457514808,17.40131665,6.911846481,-0.298757648,0.92846437
3.518567979,6.301376027,5.136351883,30.80665888,10.07525742,1.291821409,1.407921192,-4.248960145,-4.760024667,5.625154863,-4.857930044,0.493853374,-1.603217302,4.913581698,9.623979787,14.87117732,3.389345915,-0.129363096,1.616053162
5.118275002,7.753641002,8.202823301,34.86111693,9.963228802,1.794990691,0.962305639,-4.483175202,-3.212131903,7.004969437,-1.345807139,5.549485378,0.157599454,4.176182218,6.371777112,11.03750168,-0.492284678,-1.181379034,1.599796784
6.006652447,7.732558492,8.986821542,25.00369002,9.181245572,2.620004321,0.567400719,-4.991524491,-1.604305872,8.981904712,1.047483222,9.22831054,2.550440944,3.53371824,0.142712542,6.651664184,-3.432386487,-3.260962963,0.399176524
7.018738242,6.766556065,8.158447957,4.957305915,8.14988223,3.636925152,0.435964107,-5.683109819,-1.086245365,10.51994604,0.59340814,8.721929072,3.764773898,3.310169303,-5.770940894,2.637160918,-4.656731341,-5.844042478,-1.557508372
8.632284304,5.59771073,7.008692444,-14.4128304,7.275128266,4.500868276,0.326672349,-6.560313441,-2.39626976,10.73076313,-3.363768957,3.158091976,2.105770717,3.3028311,-8.448112369,-0.383753439,-4.301877574,-8.285349698,-3.162274168
10.67673314,4.659793656,6.435084269,-22.31894847,6.867721918,4.82614547,-0.170637114,-7.524450744,-5.148726087,9.663969296,-9.681061276,-5.457739217,-2.584219233,3.031200148,-7.296479117,-2.324620727,-3.155038805,-10.08299647,-3.413478893
12.48619755,3.84101046,6.355110647,-15.51687999,7.053224146,4.436111286,-1.235973101,-8.308938857,-7.988715762,8.260618467,-15.84389617,-13.18373608,-8.526283115,2.252458613,-4.244276533,-3.480774449,-1.984980972,-11.05765028,-2.138955611
13.37872441,2.719751653,6.006340472,-0.322527188,7.739773982,3.502749791,-2.614669269,-8.605328681,-9.498878263,7.532509569,-19.32464523,-16.42691617,-13.00068903,1.307396218,-2.059803229,-4.144791758,-0.999699949,-11.35365433,-0.097374731
13.09663972,1.045797671,4.802131663,12.30679429,8.675709471,2.456303646,-3.756615113,-8.279260095,-9.151666433,7.696269694,-18.99565219,-14.07057807,-14.06096128,0.982598039,-2.178617203,-4.326240282,0.158275257,-11.28229152,1.589486753
11.87739075,-0.975929294,2.939876005,14.76383303,9.560297835,1.721823371,-4.179204286,-7.486552797,-7.578669947,8.025491238,-15.68631461,-8.050331747,-11.74063635,1.957382385,-3.775653037,-3.806909195,1.910296629,-11.12644216,2.194617761
10.13041778,-2.857460053,1.220565012,7.769536369,10.13853064,1.479376091,-3.770451827,-6.573135211,-5.984026272,7.555033418,-11.56972212,-2.066264902,-7.908039258,4.24274527,-4.755644128,-2.463766318,4.169593512,-11.0370718,1.74473335
8.028070622,-4.290333742,0.282554785,-1.1795934,10.24230616,1.623946536,-2.816046728,-5.82484735,-5.203655452,6.020989721,-8.841564456,0.63899939,-4.931891834,7.045745439,-3.738323038,-0.550839816,6.185823764,-11.06553246,0.764050049
5.393465451,-5.45283903,-0.006291496,-4.245147673,9.796320187,1.932952422,-1.764301969,-5.272731224,-5.160903391,4.199898901,-8.56069456,-1.012496526,-4.166634915,9.186122846,-1.314560436,1.344104499,6.960942882,-11.25853157,-0.294902448
2.008147122,-6.841680001,-0.409577564,0.69115691,8.827614951,2.278036494,-0.938793306,-4.727914002,-5.107262119,3.319071127,-10.31187474,-5.692849427,-5.314265612,9.789999583,0.494672336,2.677991365,5.944044227,-11.68964636,-1.406999815
-1.9221633,-8.739722244,-1.554481542,8.906007023,7.485052883,2.693218698,-0.414767672,-4.029263575,-4.38223,4.014045055,-12.74026789,-10.79191661,-6.982435233,8.790621179,0.094895828,3.381076045,3.4960328,-12.36033171,-2.828928318
-5.582623282,-10.78692967,-3.256733751,13.06724745,6.030589461,3.254216385,-0.107236059,-3.291863942,-3.024092695,5.717293116,-14.46331054,-13.99209881,-7.858296441,6.91235233,-2.125670723,3.984352763,0.781338408,-13.03314031,-4.63431016
-7.882638163,-12.07082586,-4.596004623,9.104485899,4.764846029,3.903902622,0.063044359,-2.918979668,-1.728972378,7.019784848,-14.74335443,-14.31046572,-7.555890552,5.177542487,-3.918852957,5.314834427,-0.849716736,-13.15588841,-6.396471252
-8.113497089,-11.71868124,-4.711113532,-0.885433129,3.905695198,4.41117036,0.097254433,-3.324192276,-1.223896545,6.741843662,-13.60538727,-12.18650473,-6.590751281,4.285731932,-2.945843627,7.956781319,-0.586142028,-12.00894367,-7.346732653
-6.432473351,-9.525480929,-3.596377455,-10.54976949,3.498520905,4.5243952,-0.011460997,-4.562427091,-1.603083308,4.862086596,-11.5142595,-8.860518572,-5.690235684,4.263508111,1.240620402,11.85074162,1.452786639,-9.058968019,-6.90745981
-3.770542706,-6.089764438,-2.136400202,-13.9898878,3.433812571,4.189716125,-0.171618713,-6.175865369,-2.183821343,2.570841011,-8.96346941,-5.59228815,-5.122450422,4.567537735,6.651753246,16.29112659,4.35240315,-4.330968784,-5.159324646
-1.201414047,-2.329996469,-1.289427232,-9.42473683,3.56827065,3.626282043,-0.194387337,-7.418873223,-1.992528793,1.422737382,-6.262712069,-3.138758667,-4.582300166,4.518983305,10.2524045,20.28980824,6.92113621,1.451157637,-2.842869293
0.753213459,1.212036205,-1.133369919,0.626491402,3.851761997,3.16576188,0.065084356,-7.735572034,-0.485615443,2.260078043,-3.577234608,-1.607196117,-3.617568545,3.762651463,10.208494,23.03478968,8.261042397,7.091361467,-0.875593476
2.337907547,4.670252719,-0.687485813,11.9783005,4.342489537,2.976539484,0.542446454,-7.154916672,2.044277394,4.700731724,-1.084220475,-0.608508865,-2.130660974,2.474020426,7.216671713,24.15888652,8.099347893,11.42114982,0.239163606
4.127113485,8.468511718,1.20897027,21.52473452,5.079600672,2.91288003,0.934926475,-6.31298287,4.638443024,7.478124901,0.916832776,0.393453731,-0.511416535,1.224608632,3.879815876,23.71764213,6.777296534,13.78651616,0.655470411
6.297644225,12.561898,4.629944608,27.94704901,5.914290768,2.63896294,0.861082347,-6.08013778,6.228733045,9.254943849,2.015067383,1.646306722,0.646115657,0.621738057,2.652952935,21.9836898,4.977211746,14.2268486,0.916545808
8.227805974,15.98775948,8.017298342,30.53779243,6.463989838,1.944043816,0.100433923,-7.052811279,6.152799049,9.262377636,1.803394511,2.778035959,0.92148017,0.945895093,3.995594606,19.23774591,3.356510481,13.2461372,1.424439533
8.806180864,17.21573045,8.970519947,28.07925506,6.280259736,0.987570494,-1.268038549,-9.249578407,4.328578296,7.406322867,0.04369912,2.826516287,0.205691803,1.982900618,6.150783604,15.65996807,2.250713395,11.35135134,2.091081992
7.27448136,15.1523374,5.914045088,19.38908656,5.151706104,0.251836417,-2.928642715,-12.18003748,1.111052287,3.998067769,-3.175848957,0.75598632,-1.433743007,3.128167864,6.643171043,11.31317475,1.555645184,8.692471774,2.443145648
3.979158186,10.08146804,-0.589605736,5.171967,3.329044359,0.212644884,-4.533095939,-15.18153987,-2.93500424,-0.478330649,-7.361465573,-3.759811861,-3.911376756,3.696818304,4.24477664,6.173927103,0.832174125,5.061513059,2.073283532
0.423095087,3.782821363,-7.932956208,-10.82890947,1.478052933,0.974693244,-5.885983057,-17.75835871,-7.166377693,-5.346402501,-11.69284358,-9.82517203,-7.078075607,3.272035945,-0.139410439,0.210982822,-0.406455611,0.241033542,1.056082065
-1.506764151,-1.370097615,-12.99095297,-23.06870407,0.342423848,2.159036499,-6.988956002,-19.71462214,-10.91947108,-9.64111832,-15.29649096,-15.57235297,-10.52735433,1.908547767,-4.282659764,-6.460261291,-2.356667511,-5.572555142,-0.010664731
-0.663907758,-3.782709688,-14.03739117,-27.43583727,0.310433014,3.137790006,-7.948643465,-21.06784416,-13.6286593,-12.27023009,-17.63010472,-19.17124246,-13.54258587,0.088566752,-6.403386838,-13.377411,-4.720352009,-11.61039603,-0.373309857
2.620956473,-3.56278905,-11.71793519,-24.11044298,1.166508101,3.442748418,-8.851206968,-21.88838667,-15.0418269,-12.51719915,-18.77077076,-19.97503526,-15.38670313,-1.532190892,-6.452772378,-19.62088438,-6.771369208,-16.78659261,0.381083759
6.678431024,-2.365902321,-8.452150275,-17.62553442,2.197320305,3.047461831,-9.697542509,-22.21526725,-15.38302417,-10.55818373,-19.38921714,-18.94944679,-15.78546594,-2.429014505,-5.957256293,-23.95786069,-7.678879172,-20.20949926,2.059233151
9.41959684,-2.273785147,-6.767362648,-13.78299501,2.586547157,2.332934021,-10.40842593,-22.08121226,-15.25831027,-7.518570722,-20.35216142,-17.96986305,-15.183702,-2.381999791,-6.635063773,-25.27332103,-6.906470597,-21.59793555,3.995286111
9.445220495,-4.465342608,-7.761602906,-15.59679462,1.842981995,1.795140698,-10.84626599,-21.56844173,-15.2757929,-4.901038494,-22.14417454,-18.41118879,-14.46399434,-1.440019979,-8.935033924,-23.09831515,-4.448247664,-21.32169867,5.456912004
6.675933218,-8.54387918,-10.67908841,-21.29757034,-0.000154662,1.73298484,-10.82058532,-20.8096702,-15.61446004,-3.732987152,-24.46199451,-20.05399285,-14.26421351,0.24518194,-11.62456907,-17.91199032,-0.773126541,-20.06621288,6.027303274
2.191823367,-12.90076514,-13.70707418,-25.88598259,-2.502068259,2.133412558,-10.11125414,-19.93015169,-15.87686137,-4.043847997,-26.26985398,-21.17026232,-14.42961198,2.540509213,-12.68027377,-10.98966936,3.446579673,-18.39405427,5.72782158
-2.514864222,-15.79671456,-15.27555107,-25.00117738,-5.114660207,2.787261823,-8.564698704,-18.99783264,-15.37505371,-5.038662386,-26.33322754,-19.79481926,-14.09896249,5.287969521,-10.74994341,-3.854752264,7.605231416,-16.52870935,4.859951359
-6.349060905,-16.41533621,-14.94051111,-18.15131142,-7.432185797,3.492142354,-6.24857507,-18.03528169,-13.66133724,-5.780629109,-23.9432723,-15.27174923,-12.42810325,8.143346378,-6.104084963,2.340626687,11.25289083,-14.48078744,3.734815285
-9.01013076,-15.24223957,-13.38943952,-8.956098989,-9.238882707,4.168448254,-3.549548813,-17.07091962,-10.90744558,-5.809314919,-19.40759733,-8.912827919,-9.394591249,10.48793943,-0.462344591,7.143483608,14.00678656,-12.34431886,2.49491828
-10.83534005,-13.61822996,-11.77243398,-2.406146907,-10.38927691,4.830675895,-1.081459154,-16.15690927,-7.840214685,-5.231283219,-14.00341671,-3.240682777,-5.995947818,11.58711647,4.080227748,10.69831709,15.45805087,-10.45263171,1.121331264
-12.30597025,-12.83624828,-10.92650067,-1.336001389,-10.6893366,5.493524064,0.609547534,-15.31597747,-5.278203836,-4.311861965,-9.388836169,-0.340050414,-3.604997478,10.97929054,6.240426774,13.38453643,15.24961264,-9.215101288,-0.430001663
-13.59088549,-13.36968214,-10.95622107,-4.681210096,-9.923271174,6.126424131,1.378237796,-14.46546589,-3.609661788,-3.023462987,-6.768850604,-0.501340079,-2.935772424,8.85622656,6.117542787,15.50572141,13.32815428,-8.749016043,-2.093968411
-14.40454696,-14.654312,-11.28020496,-8.534301003,-8.020421525,6.689046972,1.606239236,-13.41115936,-2.577938971,-0.995929902,-6.253766838,-2.111535996,-3.431970805,6.131092483,4.929900323,17.22294446,10.17288342,-8.628134898,-3.661870142
-14.21461529,-15.46812582,-10.98084733,-8.915308084,-5.213961141,7.182089585,1.987211853,-11.95116823,-1.497226886,2.09659744,-6.765959003,-2.821571146,-3.598640328,4.066372336,4.225977016,18.66510544,6.759802958,-8.009917774,-4.854501636
-12.62108167,-14.622779,-9.247449397,-4.167087174,-2.03255644,7.635555399,3.079361528,-10.02562796,0.278927493,6.094512672,-6.588655689,-1.115335022,-2.069983786,3.63973367,5.081275585,19.99076617,4.189628382,-6.114607115,-5.440225029
-9.658996133,-11.56897082,-5.775612587,4.452453903,0.902370538,8.037016967,4.91855458,-7.794831526,2.944975413,10.28041057,-4.321812454,2.809047754,1.377437549,5.032877339,7.651671508,21.25793589,3.165435138,-2.741958233,-5.325939411
-5.856405916,-6.633095141,-1.016547164,13.8812586,3.139783465,8.28302146,6.957472234,-5.585459325,6.099939215,13.74535391,0.237613235,7.353656313,5.624287495,7.566983563,11.18259342,22.19595963,3.644575642,1.538820826,-4.58540021
-2.033324363,-0.832400346,3.858597842,20.90526803,4.536122775,8.22544185,8.366275215,-3.761200318,8.891128778,15.8633487,5.800822645,10.658826,8.9555099,10.11139598,14.37519942,22.13492546,4.890691386,5.657969175,-3.430879903
1.036464182,4.57595632,7.372150353,23.28901757,5.183096427,7.786051733,8.475788126,-2.634315927,10.33124664,16.47335291,10.12787867,11.6859327,10.17440647,11.67784256,15.93281447,20.26447858,5.887252305,8.574008148,-2.152245439
2.922906224,8.560741982,8.421602856,20.17136024,5.215247426,7.02821632,7.064897888,-2.472857945,9.65996036,15.67851035,11.19045216,10.55237112,9.258701638,11.81545504,15.08867052,16.11894801,5.845227623,9.696372738,-1.043229418
3.655848204,10.58527104,6.867944282,12.1460004,4.680028511,6.10073855,4.34403906,-3.532776203,6.652580028,13.5488228,8.322289606,8.070427779,7.131190957,10.60687877,11.91041071,9.955702866,4.509720956,8.956386668,-0.326441624
3.620985531,10.60367191,3.61481514,1.3108676,3.585304139,5.093895637,0.730980857,-5.989937915,1.77984669,10.08472051,2.640506828,5.001802172,4.81541365,8.376983687,7.23180594,2.723126883,2.143672196,6.576114556,-0.090017793
3.308878745,8.866472206,0.046070641,-8.99742893,2.065977934,3.952094746,-3.352956082,-9.742187691,-3.887235905,5.496327277,-3.590969518,1.620589495,2.684577456,5.414586348,2.225202054,-4.396914254,-0.71151308,2.802993574,-0.256999409
3.05632659,5.70590804,-2.845860301,-15.26369403,0.48421202,2.555840122,-7.517950606,-14.22487382,-9.067734106,0.478590335,-8.311987354,-2.189791516,0.367460978,1.934866162,-2.158788917,-10.56486792,-3.496755374,-2.153799421,-0.610161339
2.907121419,1.440448332,-5.032053906,-15.54832523,-0.684515844,0.926410471,-11.32479986,-18.46216271,-12.82565399,-3.901341352,-10.87225596,-6.532913408,-2.695203677,-1.744905071,-5.553366567,-15.57798466,-5.781599659,-7.98307826,-0.879421591
2.640668302,-3.587120296,-7.293340868,-10.9404968,-1.143688343,-0.638753019,-14.26860375,-21.44572696,-14.99199901,-6.750172395,-12.27930206,-11.19530347,-6.566546965,-5.055129035,-8.131334838,-19.70114179,-7.298826963,-14.13874002,-0.868097147
1.923395316,-8.94583285,-10.45856614,-5.440209208,-1.030876749,-1.672318922,-15.94010359,-22.66200916,-16.16605406,-7.935051103,-14.31096742,-15.675632,-10.58506576,-7.274115798,-10.23682078,-23.20457757,-7.947103913,-19.92153312,-0.563412743
0.486747598,-14.15150087,-14.63356253,-3.850276431,-0.904531719,-1.86035982,-16.27760598,-22.40210455,-17.25293996,-8.198293753,-18.11994334,-19.46389471,-13.76779674,-7.877662025,-12.0100945,-25.98533644,-7.805569511,-24.765378,-0.167277433
-1.750057932,-18.81637826,-19.02995929,-8.743930868,-1.413361084,-1.342190408,-15.68122461,-21.5763069,-18.82288677,-8.630986841,-23.33292446,-22.30160065,-15.50035392,-6.892331987,-13.30049759,-27.5517994,-7.122272913,-28.49009549,-0.010632148
-4.64057981,-22.78826159,-22.5138668,-18.51432208,-2.848621012,-0.713074251,-14.82664261,-21.09682067,-20.72534673,-9.863106745,-28.28168302,-24.21413777,-15.95099713,-4.955417446,-13.89255821,-27.3434269,-6.215274211,-31.26558573,-0.374608812
-7.839643083,-26.11824625,-24.40395966,-28.02097026,-4.898307738,-0.665945588,-14.25274412,-21.2385743,-22.21327223,-11.58050886,-31.15216229,-25.31554384,-15.88028747,-2.980242495,-13.78484673,-25.09930825,-5.295575611,-33.26539663,-1.305563221
-10.87928427,-28.82598768,-24.85476924,-31.63133434,-6.802836692,-1.50691936,-14.00934441,-21.45170297,-22.4548366,-12.73251795,-31.15470716,-25.56001044,-15.99626063,-1.620573515,-13.21827446,-20.98357947,-4.315822933,-34.27993944,-2.53613627
-13.28748597,-30.63445842,-24.53192861,-26.73615508,-7.82990487,-2.913998376,-13.64528406,-20.79527216,-21.0384959,-12.25728341,-28.84591703,-24.64087854,-16.3507664,-0.892583231,-12.39828253,-15.40868867,-2.966352444,-33.64907793,-3.581622771
-14.7412657,-30.93832011,-23.9035205,-15.40285876,-7.749044796,-4.144565393,-12.57511941,-18.69917372,-18.13460259,-9.777935697,-25.44814279,-22.1314938,-16.23688097,-0.217288177,-11.17419536,-8.759451625,-0.849335732,-30.65485098,-3.981906548
-15.20660486,-29.13162642,-22.79904698,-3.077028874,-6.974984079,-4.548926065,-10.56667309,-15.49328382,-14.29545225,-5.802395419,-21.82691685,-17.809653,-14.67796154,1.140772986,-9.029225201,-1.290841174,2.265317994,-25.142394,-3.560771753
-14.97836252,-25.12375542,-20.63685527,4.746212235,-6.277493872,-3.996574922,-7.980313277,-12.28979579,-10.15650675,-1.380563467,-18.02045142,-11.98784051,-11.17577027,3.532546605,-5.488813623,6.699677391,6.254219045,-17.9097485,-2.546069804
-14.55183417,-19.65237254,-17.11052235,5.639513043,-6.258458521,-2.885513655,-5.563269474,-10.27072143,-6.293139347,2.451063278,-13.67462339,-5.631009813,-6.201423677,6.638321241,-0.669409574,14.58620565,10.61928069,-10.52461244,-1.467207603
-14.35356748,-14.07328145,-12.69511614,1.192393578,-6.954578194,-1.742632329,-3.933805051,-9.873334478,-3.228359359,5.067066168,-8.892817812,-0.110332174,-1.078274418,9.616305133,4.49544535,21.3066991,14.61520649,-4.618573609,-0.88213676
-14.47636621,-9.666832342,-8.474606369,-4.569375208,-7.827083897,-0.759740424,-3.128106377,-10.45234967,-1.371976423,6.367721771,-4.609470752,3.379223064,2.702880188,11.58062724,8.61360182,25.61700576,17.44545883,-1.086485137,-1.095115796
-14.60224841,-6.895865397,-5.391135154,-7.96436806,-8.126501369,0.338538788,-2.545300035,-10.66637385,-0.755842366,6.718226893,-2.015189369,4.476276347,4.331897438,12.10317417,10.59293817,26.62467904,18.46540463,0.302897804,-2.031265294
-14.19845248,-5.157783793,-3.551470742,-7.701433653,-7.371206697,1.981862157,-1.341859509,-9.333820509,-0.752551284,6.823238527,-1.456950409,3.979518944,4.170287369,11.43635369,10.28406155,24.29526999,17.37752381,0.653767328,-3.328480074
-12.88342527,-3.265358755,-2.213742434,-5.031788108,-5.623553795,4.266751819,0.991356892,-6.191167942,-0.175853566,7.498872802,-1.817658262,3.53434724,3.563200586,10.33718863,8.549766396,19.59823594,14.39596345,1.234763342,-4.566062078
-10.71837916,-0.364988252,-0.506902494,-2.288679019,-3.407704272,6.724152927,4.257676826,-2.070958252,2.043285138,9.267307517,-1.086560762,4.730287215,4.049261285,9.609619953,6.711604839,14.14884045,10.29051079,2.762747655,-5.472903494
-8.207879074,3.348722778,1.711132452,-1.109599376,-1.359727313,8.565347192,7.625224337,1.585755866,5.945234323,11.90048195,2.148879947,8.087329259,6.414569931,9.63218587,5.758456816,9.485317787,6.185908827,5.069328455,-5.996093093
-5.991285465,6.650570398,3.606540397,-1.586826414,0.139906528,9.226787358,10.07376237,3.546670218,10.1293061,14.28438528,7.416048988,12.58705468,10.15543955,10.13126921,5.832715023,6.333260099,3.091107714,7.252726717,-6.225680696
-4.437573809,8.047282903,3.991988305,-2.692941923,1.121252905,8.774043107,10.91776778,3.427239509,12.37595201,14.92074975,12.37112527,16.13363954,13.69380265,10.31688933,6.26564304,4.241419857,1.346455862,8.13483639,-6.27036572
-3.439639562,6.755936221,2.337677875,-3.360731234,1.898448601,7.830712087,10.09014211,1.797752185,11.07250617,12.92221786,14.24612051,16.73264245,15.24246099,9.303497867,6.04051447,1.810411226,0.341548853,6.748801931,-6.190087067
-2.563603469,3.211288597,-0.669596019,-3.261517072,2.774416746,7.08596158,8.058948358,-0.251201126,6.458134939,8.82370528,11.71567686,13.65923773,13.81117869,6.591972361,4.331030097,-2.550653232,-1.21345352,2.676088691,-6.018971312
-1.441007755,-1.237327182,-3.521795145,-2.751685323,3.778828576,6.78078235,5.491294278,-1.787208229,0.654987589,4.461767045,5.787848532,7.853953083,9.74448449,2.361159521,0.826505466,-9.688650069,-4.511355605,-3.808259315,-5.826228507
-0.102087486,-5.190811189,-4.970362827,-2.204166342,4.603028532,6.587160537,2.909576723,-2.554658611,-3.71431129,1.788300096,-0.951459806,1.298281362,4.471717842,-2.57933933,-4.212363333,-19.08003185,-9.801635907,-11.76638946,-5.736269966
1.010316167,-7.99472489,-4.952095717,-1.410198339,4.770120654,5.964217003,0.539366224,-3.051802033,-5.390486474,1.386823353,-6.141804353,-4.173979013,-0.346941699,-7.141192116,-10.05734608,-28.8924158,-16.04523841,-19.81225908,-5.876943654
1.359245968,-9.930477646,-4.623356753,0.381010287,3.941267097,4.678460051,-1.614802072,-4.145090121,-5.390580838,1.87810894,-9.110173839,-7.80560382,-3.713127898,-10.4166837,-15.68141517,-36.76573963,-21.36597825,-26.51669259,-6.295792853
0.714928061,-11.75175169,-5.464570033,3.767436565,2.177136961,3.044255243,-3.583889221,-6.459077738,-6.173100971,0.855250295,-10.92561875,-10.00442223,-5.660117201,-11.99766754,-20.00192077,-40.92154511,-24.05978176,-30.90954098,-6.913281513
-0.679843349,-13.99146976,-8.146061634,8.370313162,-0.016222547,1.682699633,-5.304629562,-9.910668978,-9.614064529,-3.211436341,-13.13777263,-11.6651894,-6.923321748,-12.00285983,-22.22693143,-40.96948195,-23.51239397,-32.84774939,-7.54771358
-2.315159734,-16.5778065,-12.02296748,12.55390928,-1.922457239,1.005502757,-6.63882165,-13.68588537,-15.36073993,-9.560181562,-16.3237822,-13.34430494,-8.222262628,-10.84774924,-22.21089319,-37.9205209,-20.41595849,-32.99771456,-7.986702951
-3.829928872,-18.9937584,-15.62322527,14.02069557,-3.034165285,0.861172609,-7.509140827,-16.70432596,-20.92344869,-15.44995219,-19.64214399,-14.92800749,-9.703693314,-8.946189104,-20.59295525,-33.40227953,-16.16478095,-32.37160309,-8.051376575
-5.304473275,-20.7674565,-17.72502409,11.01945941,-3.420832535,0.643035222,-8.031126304,-18.30599749,-23.5311482,-18.13525166,-21.68393028,-15.95537209,-10.92592937,-6.553028178,-18.53481515,-28.60682632,-11.89802596,-31.66847612,-7.62375021
-7.18483978,-21.85170992,-18.19561164,3.4492343,-3.789609353,-0.227243157,-8.526240077,-18.71727095,-22.3456422,-17.052855,-21.81131145,-16.20577607,-11.33450676,-3.830679509,-17.12936168,-23.70145448,-7.897028532,-30.86249054,-6.65368629
-9.879546762,-22.59757386,-17.98954456,-6.866700135,-5.130328165,-1.83546341,-9.388292712,-18.95239507,-19.2708144,-14.45886897,-20.80176442,-15.99501492,-10.82276477,-1.04214836,-16.82900632,-18.1123884,-3.748962265,-29.35688993,-5.179041619
-13.33037862,-23.39092445,-18.36527721,-16.99038826,-8.095398533,-3.701679715,-10.88077964,-20.16235564,-17.64575054,-13.87306766,-20.25383219,-15.94676992,-9.943908214,1.32828854,-17.28525694,-11.44165357,0.917509811,-26.62204401,-3.362446121
-16.8907886,-24.2860476,-19.9409315,-24.33639432,-12.47928698,-5.142313068,-12.99245089,-22.83644694,-19.76846502,-17.41311365,-21.281479,-16.49479622,-9.631470712,2.672752793,-17.7149659,-4.269007956,5.764785551,-22.84064948,-1.502831481
-19.62164748,-24.931125,-22.26280921,-27.9187957,-17.16368198,-5.759724316,-15.43896418,-26.40620255,-25.13855223,-24.05126617,-23.6109265,-17.58330047,-10.64439249,2.553957536,-17.51052675,1.866229446,9.725273404,-19.0170491,0.028989432
-20.80501392,-24.8030037,-24.12128755,-28.60330027,-20.63594419,-5.665214003,-17.79866725,-29.55455122,-30.76691841,-30.1862616,-25.82047434,-18.80151976,-13.11175678,1.014808046,-16.62028221,5.399990689,11.6847806,-16.3691461,0.93393257
-20.31663122,-23.51131897,-24.30312688,-28.22561378,-21.81062777,-5.281488951,-19.68322556,-31.03930993,-33.30186774,-32.15213362,-26.48168975,-19.75835694,-16.43102204,-1.313084875,-15.41770656,5.950449831,11.35746447,-15.37470789,1.141135918
-18.60473001,-20.91295387,-22.22910443,-28.19949392,-20.64452114,-4.924442544,-20.833889,-30.45596563,-31.33656373,-28.78010463,-25.22084897,-20.29093082,-19.51612556,-3.405937589,-14.20776396,4.855384153,9.662163359,-15.17368374,0.878990304
-16.31114167,-16.99206937,-18.11268921,-28.58505429,-18.12938319,-4.533630268,-21.10841683,-28.39675826,-26.18208852,-22.09585263,-22.8356637,-20.30474833,-21.21226062,-4.271773395,-12.8278951,4.515336542,8.261997673,-13.85476408,0.600019019
-13.82310282,-11.6997521,-12.67300438,-28.23869277,-15.64333186,-3.774005722,-20.42110836,-25.91232054,-20.64053573,-15.698332,-20.44030683,-19.45844779,-20.68918528,-3.392250345,-10.72232106,6.877845232,8.539802453,-9.564264605,0.782605927
-11.0782057,-4.990276948,-6.713180723,-25.85160398,-14.08048959,-2.405057664,-18.73523717,-23.71418398,-16.86085701,-12.14876096,-18.43404354,-17.1188305,-17.71971472,-0.964959921,-7.461239819,12.06610669,10.69273607,-1.777866377,1.703604812
-7.746761361,2.901648967,-0.862917023,-21.01904896,-13.34216063,-0.587422073,-16.14631932,-21.74950105,-14.97578636,-11.3829571,-16.20167989,-12.79023576,-12.80950847,2.164788292,-3.283012478,18.11423754,13.54741502,8.093070716,3.289501742
-3.640103129,11.15641406,4.432031717,-14.5024695,-12.52698167,1.144696639,-12.9836677,-19.46655343,-13.46939009,-11.24646063,-12.79070125,-6.745149655,-7.125293851,4.844723578,0.80834881,22.02772534,15.20366092,17.19236034,5.111038312
0.960156181,18.34596394,8.793866848,-7.553493818,-10.66617398,2.234344175,-9.797580448,-16.51336518,-10.79000086,-9.536572319,-7.959472947,-0.291055263,-2.157358619,6.076326048,3.515743797,21.48078494,14.0802811,22.54536205,6.522742998
