Channel 1 - P4,Channel 2 - O2,Channel 3 - P8,Channel 4 - T8,Channel 5 - C4,Channel 6 - Cz,Channel 7 - Fz,Channel 8 - F4,Channel 9 - Fp2,Channel 10 - F8,Channel 11 - Fp1,Channel 12 - F7,Channel 13 - F3,Channel 14 - C3,Channel 15 - T7,Channel 16 - P7,Channel 17 - P3,Channel 18 - O1,Channel 19 - Pz
-24.95468853,-51.81903413,-64.49744819,-46.87390042,-62.55762068,-56.85762101,-55.2109115,-57.04474038,-65.50984441,-68.43429222,-71.10425962,-58.96459447,-62.48849364,-53.77186847,-60.56871526,-69.26692214,-29.19410624,-33.81928053,-58.04384493
-31.23212086,-50.89686324,-49.95162826,-19.50890444,-53.82312513,-48.71487848,-40.01194271,-45.18516712,-40.55842335,-51.6711216,-47.68945159,-50.67455826,-49.68830216,-50.89576951,-50.45926297,-62.54024483,-46.08370588,-50.60615881,-48.48210475
-17.60305554,-27.2901727,-12.14751542,17.80775555,-22.49508622,-20.50974084,-9.081751705,-14.2663365,-1.86188035,-17.18622158,-8.208392763,-21.44982038,-17.6375933,-26.45338358,-20.68102482,-28.17275918,-36.31406291,-40.45493843,-19.43091131
5.527170123,2.633636544,23.87024351,40.93822267,9.892716601,8.335474889,16.89733221,13.73762535,25.40270277,11.37753122,23.12671919,10.14924188,12.39130895,3.111717502,10.33525938,11.55184381,-8.610865587,-11.94092806,9.679598043
21.88116781,20.2175953,35.74032622,35.51504189,23.190526,20.4359127,22.78957226,20.93556543,26.57547515,17.26300543,30.30984335,25.74219168,22.91318191,19.87045856,25.68864762,32.81267034,16.90192458,14.66198145,21.62401586
21.70261632,17.85287421,19.63436617,6.433007587,12.87549853,12.39734413,9.094676235,5.800660194,6.691327516,1.491383607,15.62149913,19.85444224,12.08929795,17.23350804,21.33531464,26.85980913,24.4704263,23.11940303,13.14404319
8.214059978,2.975191691,-8.464545683,-26.6784338,-8.50171635,-4.658998918,-10.33419559,-17.4952136,-15.6770749,-20.19113435,-4.552916368,2.12321701,-7.001367469,3.127690969,6.862251934,4.362744212,13.56919069,12.42355856,-4.590598704
-6.294862162,-9.432247051,-26.13234687,-43.92913793,-22.70023702,-15.36156518,-20.13190605,-31.16431537,-23.84559132,-30.75383436,-13.61725721,-11.63463476,-17.97836633,-7.989424509,-3.67307659,-14.57732269,-2.939947855,-4.577395827,-16.13084028
-10.77326989,-9.037767584,-21.43441216,-38.38617865,-20.11147662,-12.23157198,-14.92439955,-27.19740354,-15.02693105,-24.54003633,-6.894387149,-11.67143079,-13.7600683,-7.014473247,-2.748459608,-15.9404241,-10.54253441,-12.73687491,-13.74102355
-3.516302505,2.712439076,-0.393576009,-18.67434167,-5.712127601,-0.155938167,-1.769084962,-11.83576244,-0.072167243,-9.617357534,6.951539948,-0.349854981,-0.412967531,3.643029899,6.338191167,-0.781481589,-4.445041635,-6.354410497,-1.886422821
7.958716044,15.44663333,19.76293636,-0.375667739,7.041141296,9.400831463,7.291890223,1.285568198,7.409389256,0.767903905,14.92735689,11.76578324,9.701693468,13.79296338,14.22762011,18.09703397,8.282880762,7.977717623,8.326111909
14.18997262,19.33857718,25.01466661,5.984801917,8.176380993,8.642840009,5.5593045,2.715869149,2.64944285,-0.378344822,10.81925576,15.43852175,8.821901578,14.95618257,14.25321535,27.5960058,16.33028619,18.52334039,9.116441674
11.56193838,12.98726262,14.768145,1.058169781,-1.200522477,-0.611456192,-3.647770596,-6.098629943,-7.427874056,-8.932737582,-0.608598262,9.764025451,-0.442501416,7.275719401,7.627015415,24.07165523,14.14067921,18.60256717,1.892535904
4.3020867,3.609848653,0.463402926,-6.617860966,-11.32088678,-9.627262819,-11.05414497,-15.65769249,-11.50773279,-14.54032287,-8.807171739,1.521402489,-8.532233431,-1.537764239,1.341397084,14.21459568,5.794501586,11.2644931,-5.236032875
-0.210208374,0.21696522,-5.025355546,-9.089418075,-13.0676402,-10.89974532,-9.916869142,-17.35298071,-4.257175077,-10.19265302,-6.731445963,-1.540554518,-7.744749951,-3.521549871,1.478223108,7.778670891,0.278631296,5.32637263,-5.238657072
1.867258183,6.00567779,2.186566228,-5.073954938,-5.709726494,-4.368519364,-1.472494684,-10.53250618,9.230643078,1.906474806,3.738761644,2.754792634,1.399218789,2.699688735,8.072497978,9.173706481,3.095775978,7.096511653,1.864336289
7.976104738,16.2065335,14.96670541,0.731175988,3.277940057,3.334162652,6.849617823,-2.109360073,18.21792909,12.72924684,14.16846202,9.936929567,11.25927366,11.26463032,15.65116197,14.82074621,11.7357107,15.18624454,9.690595557
12.10804997,22.58614598,22.17033661,3.264054277,5.409353555,5.284023565,8.226728524,0.136668432,15.64060614,14.3474111,16.90418598,13.44145346,14.00402282,14.61496606,18.33325322,17.53907512,18.50771303,22.43985448,11.59664865
10.43279232,20.30273505,18.03010523,1.983055837,-1.347083457,0.319621643,2.081232634,-5.684990072,3.827368362,6.322091006,10.88630081,10.30832458,8.044732039,10.00021896,14.6631334,13.33191064,17.61402452,22.60778983,6.460121986
4.493536938,11.3571587,6.134549801,0.848377919,-11.2308482,-6.425985035,-6.04124265,-14.42758791,-7.901325512,-4.584446989,1.493337208,3.163524055,-1.312872321,1.358273134,8.131806438,4.599632284,9.988005132,15.61467401,-0.79760964
-0.567122438,2.253292887,-4.531232907,4.050700751,-16.13273155,-8.519636641,-9.67460609,-18.78261894,-11.16206085,-10.47562853,-4.611715028,-2.662592478,-6.93168001,-4.609371271,3.490950337,-2.442653648,1.920288246,7.067477732,-3.944305193
-0.767094558,-1.5714578,-7.301110652,11.77028029,-12.62996467,-3.983513289,-6.827237809,-15.5006519,-4.981574596,-8.538452435,-4.743111171,-3.802148321,-5.776524213,-4.299064241,2.577559456,-3.261397934,-0.786578702,2.981174662,-0.893518927
3.3712776,0.322562437,-2.606118747,19.72193244,-4.467868073,3.25108522,-0.99990261,-7.601577856,4.378179345,-2.243993712,-1.299180625,-1.121078651,-0.654145181,0.188281312,3.368484859,1.526569425,2.337353885,4.70762085,4.897159643
7.692109565,4.015724906,3.615132859,22.5257823,1.278601483,7.15256483,2.571477795,-1.123368192,9.458321688,2.841625804,1.477247919,1.976559588,3.198746015,3.635361506,2.714140654,7.331980959,6.720770899,8.419469117,7.957971235
8.377528177,5.261492241,5.638556949,17.67163894,0.566119521,4.97869131,1.721896498,0.27718684,7.912814059,4.354779902,1.621170067,3.125059006,3.115759888,2.759229486,-0.163852683,9.822962335,7.462512776,9.164621228,5.776662468
5.272989434,3.106733518,2.497613053,6.824474516,-4.412507359,-0.557990804,-1.062757082,-1.939387273,3.799414093,4.743323507,0.780780487,2.96986937,1.020660316,-0.943694529,-2.781821998,8.280571356,3.896328481,5.522762515,0.731045718
1.67891996,0.152973844,-2.200811517,-5.969986808,-7.706506917,-4.021926712,-1.375202929,-3.182378741,3.279486032,8.114645504,2.055412722,3.922890707,0.976596229,-2.933047141,-1.835205577,5.429805598,-0.087579531,0.694656462,-2.474971842
1.067956973,-0.277008584,-4.230412078,-16.90336323,-5.18660691,-2.177732474,2.848438367,-0.240617673,8.922714923,15.62192526,6.77976586,7.243964049,4.904244889,-0.086605032,3.45445244,4.435615524,0.023084749,-0.679907056,-1.244892752
3.894216021,2.774864292,-2.452921515,-23.44587015,1.860579223,3.330218578,9.423546881,5.856204154,17.59451242,23.80247297,13.2764971,11.46045024,10.56523287,6.287476925,10.28062493,6.05129104,4.999194764,3.14891165,2.713833644
7.368436189,7.24561161,0.897251329,-23.653423,8.123637397,7.723139011,13.89424677,10.97573607,23.39519471,27.36376136,18.42911277,13.68148325,13.58729362,11.55026999,14.4789466,8.338802898,11.09152331,9.498234148,5.263841507
8.225631501,10.08073289,3.012238285,-15.66881639,9.095708927,7.432936459,13.39648826,11.67188412,22.69518199,23.79855296,20.29035366,12.49567595,11.52315243,11.81196244,14.00317185,8.816377128,13.42175963,13.71518863,3.839297329
5.802438843,9.870043232,3.309427132,0.955593129,4.908876802,3.081520593,8.912777342,8.081106889,16.82479307,15.63506595,19.26700942,9.595785319,6.157493895,7.265376179,10.52353218,6.808330097,10.33873955,13.24984783,-0.190129157
2.591594711,7.763501216,3.558808605,22.88764489,-0.086867492,-1.395178035,4.104561565,3.483897383,10.42110607,8.3717662,17.08221365,8.462396436,1.993292677,1.87791174,7.788079668,3.914786104,4.794410595,9.667280062,-2.893348318
1.858106924,6.133758192,5.531330689,42.34672655,-1.33179415,-2.412935668,2.043411092,1.238711498,7.332302993,6.031579389,14.89904496,11.20987161,2.35492454,-0.111866759,8.311155135,2.455347925,1.619022534,6.962774651,-1.502657723
4.591503063,6.462433163,8.779010063,50.15006776,2.081706092,0.237266761,2.876126812,2.040969237,7.833433073,8.268236009,12.58271146,16.46596087,6.625769246,2.32163753,11.36299886,3.523407051,3.275225061,7.887561918,2.990389213
8.595357739,8.363100343,10.87464652,41.31790143,7.012574212,3.609730669,4.34689658,3.882737507,9.319036064,11.38591985,9.671008957,20.29162322,11.00057524,6.525800836,13.93020839,6.36547038,7.902502849,11.61928002,6.716360643
10.4896216,10.3407731,9.881361117,19.24791658,9.377936956,4.593625295,4.370968635,4.433568132,9.341725471,12.0621158,6.759594081,19.43619016,11.93130273,8.882319839,13.58611844,9.351345513,11.2444109,14.70527445,6.418858162
8.743079367,11.24268128,6.549521753,-5.234773446,7.741718109,2.759881256,3.075927153,3.383003423,7.931810779,10.26536053,5.583232653,14.11601768,9.113592532,8.053407502,10.57010581,11.35475869,10.5257859,14.20921363,2.352796173
4.978309932,10.92815389,3.946430331,-20.03867923,4.20171764,0.494179324,2.435615892,2.527034559,7.14536894,8.817625255,7.475998648,7.889177552,5.426065182,5.837075554,7.254848681,12.23795126,6.724874179,10.15096875,-1.997452912
2.426199062,9.718606341,4.691349291,-19.14282782,2.056784315,0.485479651,4.007995789,3.663973331,8.564923137,10.24721715,11.68103777,4.721537918,4.060325703,5.055284852,5.673646804,12.2472889,3.322088417,5.185796938,-3.051155753
2.99947786,7.515404894,8.327060296,-5.900267629,2.652084945,3.060899525,7.065445841,6.463647774,11.34940137,14.03269173,15.3325338,5.761227447,5.555801173,6.628435221,5.547783912,11.24192271,2.877345503,2.067443737,-0.253000332
5.647236914,3.74560342,11.35733671,9.99728518,4.34395861,5.873163715,8.966392392,8.444511371,12.75428419,16.86117814,15.43718774,8.547729344,7.402672658,8.623462494,4.697704406,8.702781539,4.676771849,1.345604644,3.579826915
7.421669943,-1.701605123,10.08854834,19.46343935,4.37103976,6.159259817,7.459845507,7.142740653,10.61053681,15.65326842,11.24574303,9.245787462,6.462880989,8.12471679,1.416575281,4.498236115,5.560420303,1.314042489,4.89370232
6.215707018,-7.578676601,3.835225465,19.65106183,1.6902574,3.390334088,2.793443891,2.459283354,5.408729638,10.52767701,4.9030277,5.92000759,1.93436488,4.131364236,-3.499006836,-0.501458795,3.048220508,0.01580475,2.57479541
2.668987293,-11.58448595,-4.337961898,14.38201095,-1.947548604,-0.175096768,-2.320115849,-3.016991792,0.052833724,4.937793845,-0.260270708,0.076984475,-3.809078196,-1.237763922,-7.079614954,-4.742478124,-2.191833486,-2.746636981,-1.164627985
-0.436837004,-11.9046161,-9.998549125,9.712186836,-3.636456548,-1.529003599,-4.857871898,-6.048334189,-2.463620269,2.80677699,-2.312782299,-4.701513113,-7.182197666,-4.367013386,-6.702462442,-7.039510278,-6.79913715,-5.286036987,-2.882368716
-0.675982824,-8.717297355,-10.76130857,8.628896993,-2.048300755,0.361314351,-3.838571788,-5.327752111,-1.334927852,5.221544652,-1.913315785,-5.705085435,-6.339847315,-3.146620225,-2.550600253,-7.365316874,-7.638656117,-5.775135063,-1.008560822
1.916589028,-4.223228307,-7.789848162,9.123807552,1.332937859,3.644026068,-0.832758582,-2.313112746,1.807193456,9.640315465,-1.130856147,-3.063634277,-2.522678256,1.313767017,2.28215134,-6.607847872,-4.498425903,-4.067538027,2.833502998
4.991474021,-0.984155564,-4.220063363,6.790627787,3.602334592,5.292016025,1.689824104,0.343722973,4.718718866,12.29499771,-1.111845007,0.794971184,1.254372338,5.729411305,4.274267237,-5.559958044,-0.157795483,-1.805729473,5.383181091
6.069104274,0.096373065,-2.108128268,-0.614393858,3.110731905,3.841611332,2.563505876,1.242126996,6.612980842,11.60435684,-0.869730317,3.474863309,2.846229707,7.438487321,2.451776622,-4.194792703,2.144637584,-0.742416882,4.677031563
4.739232367,0.389820264,-0.751246899,-10.55732237,0.92425621,0.676232486,2.675567578,1.282667391,8.538805794,9.531593734,1.605274505,4.53920098,2.5617838,6.454934081,-0.74725348,-1.99264084,1.489734744,-0.951515075,1.707492249
2.910955947,2.154686442,2.134112759,-17.11588952,-0.259151722,-1.259703512,3.695167081,2.413213526,11.81624645,9.684597177,6.944334007,5.387027318,2.402213504,5.055695929,-1.531265561,1.024860931,-0.171283591,-0.72245525,-0.604276178
2.957864336,6.301852858,7.57609031,-15.15879461,1.310582368,-0.097694954,6.106308801,5.337858943,16.13427092,13.87332627,13.03913112,7.385645525,3.840625621,5.446787668,1.979635112,3.715123591,-0.060265607,1.685758747,-0.092765612
5.48826227,11.2676887,13.59980603,-4.083070915,4.764999153,3.352520377,8.465714416,8.429804155,19.2232857,20.20456108,16.19424484,10.12719314,6.275010023,7.719364158,8.056509677,4.497605254,2.771591798,6.071304573,2.756729548
8.748121051,14.04132493,16.33249271,11.51446315,7.381928506,6.410725369,8.60625062,8.970196269,18.53391319,24.42430226,13.98255747,11.48843318,7.54725627,9.912314359,12.67963615,2.844166181,6.613701848,10.03122274,5.335505355
10.14453672,12.5458731,13.12492569,24.449323,7.051800783,6.918505284,5.663605753,5.655386475,13.47968294,23.36141459,7.361731492,9.475559842,5.969992496,9.990132899,12.76590532,0.161728965,8.759892874,10.81710723,5.276204264
8.479415439,7.391741959,4.989060159,28.88914349,4.167558178,5.020141593,1.029007245,0.077062698,6.247052904,17.51193885,0.141889152,4.192758315,1.954212066,7.806566404,8.616152633,-0.989507173,8.02853135,7.736173925,2.480868992
4.909866915,1.529737529,-3.809551554,23.18518521,1.227331712,2.794091651,-2.684473741,-4.27243639,0.410840011,10.59027468,-3.844018471,-1.863245788,-2.236901073,5.220601636,3.598307319,1.072276731,5.781304128,2.941450698,-0.943514412
1.859764114,-1.915088345,-8.724796722,10.28384083,0.553365404,2.205439362,-3.761039787,-4.730003245,-1.527770963,6.511346331,-3.527447864,-5.529277782,-4.345828563,4.305631244,1.41573554,5.550940477,4.548706393,-0.184265003,-2.648279765
0.946452107,-1.862010497,-8.020556996,-4.041260974,2.232202494,3.337842582,-2.708790243,-1.616645665,0.294473604,6.421453302,-1.060796188,-5.330843077,-3.90624419,5.368420965,3.261341857,9.511917753,5.607643286,0.266148033,-2.046573413
1.792048578,0.195131907,-3.519162585,-13.97276789,4.131870629,4.505473887,-1.644737659,2.041174408,3.564245588,8.22802044,0.311508792,-2.547193362,-2.417126572,6.644870041,7.12409628,10.07821915,7.789857424,3.227227882,-0.586869184
2.689212298,1.632672298,1.37074733,-16.18617691,3.924418594,4.042821211,-2.330706492,3.00291419,5.695941773,8.829475132,-0.976216901,-0.153865644,-1.863122441,5.964248565,9.633117482,6.746401384,8.607857926,5.643919299,-0.191602151
2.372168288,0.808427504,4.442679923,-11.18621375,1.227809923,2.024876247,-4.620926456,0.416471771,5.544018771,6.943777309,-3.773130594,-0.53624012,-2.979518395,2.848966873,8.762988998,1.86422178,6.616990439,5.076100154,-1.415488282
1.190400968,-1.872180225,5.894791259,-2.896206667,-2.075525918,0.289146029,-6.653253307,-3.623219693,3.707589186,4.061904285,-5.626801809,-3.783432863,-4.772162865,-0.88505619,5.188843369,-1.201652519,2.804839136,1.699846756,-3.034321462
0.624960985,-4.618761811,7.159511549,3.454406138,-3.577840806,0.751893304,-6.529923645,-5.933671251,1.556032486,2.833466154,-5.173053667,-7.794047367,-5.579222157,-2.596457869,1.385048833,-0.728451606,-0.271687235,-1.951672635,-3.363067871
1.678298424,-5.855757424,8.755236198,4.235461604,-2.500581999,3.60009818,-3.947186024,-4.862138034,0.088455334,4.473498476,-3.261977167,-9.94074178,-4.588449296,-1.05454903,-0.529645215,2.070317141,-0.787754218,-3.198278867,-1.983147575
3.71908002,-5.322859381,9.334900102,-0.514350463,-0.288370086,7.036314308,-0.373066509,-1.460230347,-0.432836746,7.556232249,-1.880981428,-8.909681324,-2.435796865,2.534993693,-0.312561465,4.171749973,0.738465893,-1.429597252,-0.223447927
4.920791136,-3.876166579,6.861646637,-7.293702459,0.85595701,8.803038798,2.261066592,1.637755214,-0.103247894,9.231669117,-2.036214458,-5.392110876,-0.476063009,5.593039725,0.643764669,3.301374689,1.997256563,1.532632697,0.053014195
3.931990617,-2.416476475,0.79174926,-11.66846926,0.091697284,8.083162148,3.084667104,2.499965336,1.00820912,7.722828889,-2.700921687,-1.346029665,0.445434199,6.339760307,0.845247623,-0.232402401,1.076136741,3.131401556,-1.784475957
1.250609481,-1.057031744,-6.818410391,-11.38426275,-1.268934194,6.061571392,2.679225485,1.322364454,2.718823051,3.872482764,-1.881905022,1.386497962,0.53371306,5.157127672,0.047426881,-3.896084487,-1.730279528,2.29045216,-4.456715088
-0.989661866,0.748155153,-12.39932023,-7.638682395,-1.035868011,4.694264461,2.130447737,-0.126524665,4.335908831,0.408661979,1.194407824,2.043636886,0.491102978,4.003322345,-0.697339879,-5.054018668,-4.13855445,0.262161664,-5.810993855
-0.698286397,3.386199097,-13.29773092,-3.398818432,1.695311714,4.873567826,1.782962045,-0.360293292,4.721335291,-0.379168706,4.894205589,0.986971135,0.559784008,4.49594444,-0.166475338,-2.990366811,-3.910960133,-0.51939147,-4.63207967
2.45909719,6.471617739,-9.51923497,-0.157091964,5.495141841,5.689624809,0.936649409,0.433019565,3.0956339,1.484710349,6.238610595,-0.901776597,0.193741741,6.419690738,1.844377854,0.808808177,-0.855028506,1.492527649,-1.61425474
6.777383233,9.046080494,-3.395547445,3.870994601,7.668342337,5.429492091,-1.260081729,0.68476364,-0.037470755,3.813630996,3.397067083,-2.850188358,-1.304780959,7.956015864,4.297835089,4.147822411,3.000212547,5.716695198,1.319412044
9.87056894,10.35649274,2.386303026,12.05028334,6.529586326,3.335185017,-4.655761297,-0.93586623,-2.848993136,4.226554478,-2.582954484,-4.455045038,-3.863296175,7.35289287,5.7420951,5.914360704,5.168002652,9.9544455,2.664997729
10.48065381,10.42008476,6.608424796,25.13601237,2.888237454,0.460522469,-7.877315721,-4.115730627,-3.37587292,2.19775481,-8.406470997,-5.60707501,-6.426638007,4.500349291,5.392391465,6.59754664,4.791143141,12.06916477,2.449396777
9.223364831,9.834919019,9.712481569,38.26989196,-0.561920182,-1.171799295,-9.343056265,-6.990393359,-1.124324592,-0.530091658,-11.05835125,-6.326514335,-7.755374458,1.041099582,3.583657672,7.25541835,3.205295219,11.39324876,1.87691624
7.753704716,9.067760455,12.45566041,42.55444214,-1.415469272,-0.3313034,-8.60575023,-7.639570022,2.307154708,-1.432676399,-10.08556984,-6.660010621,-7.515219322,-0.996943364,1.368818081,8.105034423,2.56441945,8.847852762,1.966818102
7.215898453,7.972973347,14.51820858,31.08476437,0.578427512,2.355520749,-6.770627963,-5.650550174,4.29493384,0.728843265,-7.702105998,-6.621439692,-6.598343046,-0.777838297,-0.24757471,8.183060343,3.864523322,5.951956912,2.534241588
7.380107193,6.057829963,14.49198566,5.222246731,3.505420304,4.988146652,-5.562504635,-2.40160691,3.220803433,4.963640863,-6.695173168,-6.145339061,-6.315502155,0.901789085,-0.797388918,6.42632857,6.174436814,3.742956135,2.472042708
7.141289479,3.25123407,11.29455709,-24.20092015,5.038536121,6.054315766,-5.858525087,0.120675013,-0.183953183,8.892940447,-8.017149224,-5.124649387,-7.181960352,2.544446754,-0.335823464,3.113116133,7.693909609,2.464326491,1.017039969
5.787182164,0.397707125,5.655489298,-42.71942751,4.376937801,5.639151564,-7.003008825,0.895058182,-3.352101477,10.55465764,-10.16080761,-3.608386646,-8.445879714,3.271814516,0.81164005,0.20357983,7.552329986,2.006892221,-1.258252267
3.798554708,-1.08610972,0.195420819,-41.57553876,2.741590357,5.11133123,-7.512776821,0.494543855,-3.885402395,9.675255433,-10.7753935,-2.047594639,-8.837337292,3.325491509,2.202512646,0.089120864,6.619146352,2.412359019,-2.726117932
2.466026038,-0.181390914,-2.140670504,-23.75312517,2.141099458,5.648555768,-6.516348041,0.33565981,-1.40951372,7.517263814,-8.977432484,-1.289361065,-7.854284803,3.437113151,3.297888536,3.714171094,6.581892406,3.858288916,-2.051826853
2.750794994,2.952672712,-0.068570489,-1.853078756,3.608649908,7.025894665,-4.609212733,1.31764743,2.243766651,5.65310768,-6.230870107,-2.113762205,-6.346355028,3.857506208,3.585430702,9.654762893,8.207391082,6.223049328,0.608295636
4.498184636,7.068036288,5.236746233,10.99049051,6.446646252,7.809480316,-3.349864904,3.068289099,4.621597358,4.804355068,-5.004589704,-4.519028759,-5.767720592,4.088649528,2.929397833,14.97584449,10.47697859,8.830358931,3.662183158
6.722751301,10.70775342,11.1181262,10.45290433,8.998065868,6.759283371,-3.862326771,4.378748696,4.606539408,4.636170914,-6.438013422,-7.342202346,-6.71944354,3.571993597,1.899996534,17.22407504,11.46084812,10.78696028,5.364514958
8.629088649,13.11628828,15.30332023,3.481478854,10.09371415,4.105933136,-5.81496781,4.332773075,3.096134154,4.460010711,-9.142121634,-8.722416644,-8.137642804,2.563632933,1.648523427,16.01332186,10.1480862,11.6686055,5.198554627
10.32928675,14.43609837,17.13997059,1.971626657,9.837732506,1.482802732,-7.690505477,3.085425748,1.937298604,4.049023016,-10.25193216,-7.300220577,-7.987178598,2.190548373,3.18991001,13.0527937,7.517862989,11.87443096,4.157509831
12.53035744,15.13011549,17.36933506,12.64755757,9.14274083,0.547114034,-8.089935502,1.650248334,2.181008589,3.809196371,-7.851696361,-3.353209014,-4.988849166,3.478536386,6.52452041,10.74386695,5.798152503,12.227734,3.730368218
15.48972719,15.27463381,16.93108311,31.18494741,8.627248592,1.544063311,-6.89869214,0.970136091,3.242344986,4.230145728,-2.690716134,1.068530084,0.07610736,6.208483898,10.32930144,10.51968968,6.515466496,13.1256247,4.548407967
18.29567221,14.44037317,16.03745359,45.26769083,8.008770839,3.127275438,-5.303124392,1.131661551,3.632428708,5.196497068,2.266444474,3.289835453,4.668968223,8.747458236,12.61419553,12.112978,9.075623786,14.02524715,5.906146028
19.2862564,12.26876037,14.3194432,44.13836901,6.540686765,3.598447793,-4.702741144,1.365708322,2.456554798,5.820101861,4.048627966,1.730169721,6.257909988,9.184832271,11.9844906,14.05571764,11.18359665,13.80243594,6.530837324
17.3720879,9.144709379,11.72583544,27.008082,3.977273536,2.434046382,-5.535410608,0.739391983,0.21086968,4.962739797,1.789378093,-3.035728774,4.152185343,6.89897258,8.609127499,14.79118723,10.78611092,11.73153756,5.832400318
13.13304058,6.239815708,9.129886991,3.644747117,1.048041192,0.716074755,-7.045882591,-1.11166477,-1.854081393,2.038465824,-2.925814764,-8.673980192,-0.06187305,3.20141041,4.163364116,13.54412197,7.85995746,8.237148428,4.464016513
8.659782922,4.777987789,7.921404789,-13.20826072,-1.063412295,0.096813004,-8.112154609,-3.78066046,-3.119216796,-2.505982129,-7.565890253,-12.65489912,-3.792118528,0.432315927,0.782789377,10.55183784,4.489080159,4.728267354,3.700407861
6.157647722,5.121761229,8.884120247,-17.36864818,-1.739258737,1.264050257,-8.27651461,-6.438983103,-4.30118755,-7.348491975,-10.57740109,-13.82081226,-5.338227962,0.199862414,-0.199181575,6.821680471,3.162214363,2.617018174,4.243453474
6.411165461,6.49078751,11.39411907,-13.03172085,-1.441885061,3.309474614,-8.001940673,-8.310302555,-6.68479633,-10.94076638,-12.1167179,-12.84653122,-4.895799945,2.202527896,1.141443152,3.732301074,4.754820314,2.336717209,5.574764635
8.360777222,7.591361376,13.73380933,-9.985255052,-1.195013197,4.554604731,-7.973818583,-8.879598064,-10.53778796,-12.23111947,-13.20356703,-11.39725027,-3.987675593,4.58220829,3.659494374,2.576365975,7.894089992,3.165883775,6.445570695
10.11838924,7.632511924,14.32582987,-14.42932905,-1.504156863,4.051922716,-8.208113587,-7.841993752,-14.25179019,-11.08806094,-14.33281197,-10.79285571,-3.982270432,5.460044568,5.994055088,3.993027762,10.17493654,3.951485373,6.039810238
10.54348994,6.859125191,12.86383492,-23.17928159,-1.753978655,2.383472596,-7.908719337,-5.084111595,-15.20983105,-8.280850742,-14.93072455,-11.25496671,-5.028594012,4.344172546,7.237525385,7.436527941,10.1161085,4.057328444,4.742796279
10.05757511,6.162229597,10.39923565,-26.18314757,-0.702233651,1.055638508,-6.268322885,-0.870266216,-11.83728074,-5.086940173,-14.09177638,-12.17959526,-6.218851433,2.290775707,7.069227695,11.13149284,8.196299092,3.724403225,3.829755178
10.06160285,6.146939608,8.348741709,-15.37738746,2.329503289,1.092667239,-3.44665126,3.960706807,-5.129479391,-2.712128818,-11.75067059,-12.95776142,-6.629599136,0.830393214,5.549858592,12.87680796,6.207056839,3.612706689,4.376816197
11.52547154,6.514577139,7.302209027,7.409310529,6.639815175,2.152550552,-0.716765269,8.154420658,1.745805248,-1.758590969,-9.045111272,-13.48088828,-6.163155188,0.708336557,2.984387791,11.42881678,5.637570974,4.037650215,6.375543908
13.99626403,6.324455966,6.639774358,30.18910374,10.47233763,2.971857185,0.492504092,10.65340319,5.600673264,-1.980330582,-7.442111485,-13.91146666,-5.426911873,1.529636706,-0.010370663,7.513476011,6.54705923,4.638613224,8.801445279
15.86428124,4.907166699,5.234162472,38.83514407,12.24013027,2.68699344,-0.125214923,11.27651966,5.464731073,-2.476755276,-7.421196457,-14.09762432,-4.882341153,2.473957253,-2.493097504,3.522312904,7.799265251,4.750546779,10.4986202
15.62528892,2.611604847,2.58724774,27.42288415,11.61684718,1.755342625,-1.324103008,10.87438175,3.120298354,-2.258251249,-7.966792715,-13.38181938,-4.203301454,3.249823754,-3.545919076,1.860760819,8.252732926,4.064887651,11.03564701
13.05296868,0.698600034,-0.57836695,2.984271356,9.598938446,1.576088308,-1.213459517,10.71702912,1.531032844,-0.867462706,-7.39453178,-11.14423758,-2.551353671,4.30672165,-2.895080958,3.087163041,7.716207081,2.916267834,10.79508454
9.332671595,0.422018683,-2.752182431,-19.02432745,7.564539719,3.136014861,1.181633308,11.51649754,2.471836196,1.342939941,-4.811720285,-7.62997626,0.449123812,6.117536663,-1.288019575,5.35719491,6.848681643,1.931792489,10.33371974
6.131226573,2.027796713,-2.724433126,-25.24557848,6.210237722,5.941272954,5.010417801,12.85506859,5.264763127,3.466441059,-0.930253771,-4.212307176,3.980224494,8.298911805,-0.147759606,5.783623222,6.267210371,1.419460779,9.733248666
4.449510783,4.471365588,-0.482836014,-13.28278223,5.272899855,8.268400112,8.136430078,13.50924983,7.539849503,4.638676832,2.462207079,-2.664068511,6.322990677,9.535043822,-0.599189016,2.762888735,5.856135038,1.122877462,8.610492803
4.186376439,6.071442897,2.708461464,7.285852897,4.158271886,8.573993343,8.715101858,12.43175716,7.254500402,4.523860501,3.867218005,-3.902760328,6.036454165,8.516829231,-2.585582174,-2.58626306,4.981676898,0.59033132,6.749272529
4.630326927,5.593589837,5.025188566,22.01355837,2.759523106,6.830394939,6.526256455,9.599474331,4.253947843,3.349665461,3.063801493,-7.2305218,3.059811953,5.109245128,-4.85170811,-7.120379308,3.343270536,-0.226977459,4.657007448
5.275783318,2.977372027,5.057146283,21.36025341,1.633920885,4.58763474,2.999453437,6.044694989,0.179430343,1.544383954,0.9176686,-10.76564316,-1.205079884,0.662149501,-5.914742499,-8.041031722,1.518816646,-0.793194437,3.388606169
6.163460721,-0.742086967,2.461514856,6.302422329,1.389110981,3.680211756,-0.020710884,3.073627883,-3.01331683,-0.632546476,-1.676945606,-12.79408305,-4.917085635,-2.910302869,-5.293890254,-5.06350791,0.552706648,-0.483174113,3.692356062
7.493122837,-4.152076497,-1.956889264,-13.49550287,1.934686736,4.697693242,-1.689771499,1.346016415,-4.562344521,-3.109640366,-4.639976003,-12.98382047,-7.080018559,-4.562486044,-3.980503456,-0.628828195,0.909171217,0.662657104,5.237327729
8.995864516,-6.264892826,-6.643186928,-26.78596174,2.40289979,6.544730192,-2.596437701,0.567257448,-5.211985977,-5.69571872,-8.520599328,-12.49238133,-8.052483658,-4.854547114,-3.710693983,2.003420096,1.813001057,1.661482231,6.689016566
9.784414998,-6.924644024,-9.930306115,-27.72624327,1.892844304,7.450765844,-3.946024832,-0.018338527,-6.247084444,-7.833808466,-13.50234867,-12.89967425,-8.941927967,-5.357764341,-5.595609201,1.203968353,1.717328175,1.155027973,6.667566638
8.924566264,-6.70432259,-10.69539289,-18.29525034,0.368032385,6.52246918,-6.291861425,-0.835176652,-8.239044123,-8.78386258,-18.62409987,-14.85253084,-10.48539209,-7.229831039,-9.21986663,-2.021270227,-0.39865418,-1.565718592,4.810783723
6.250952356,-6.489288681,-8.829457475,-5.48612769,-1.16617219,4.487047736,-8.935453535,-1.600105124,-10.59669864,-8.181872191,-22.07148701,-17.51332441,-12.39198868,-10.16760806,-12.93924714,-5.191849331,-4.026582181,-5.913652579,2.028254548
2.66697996,-7.007245457,-5.305011743,3.850840932,-1.445775153,3.022519435,-10.47121084,-1.653209732,-12.1761084,-6.490470269,-22.40436979,-19.2128071,-13.64393665,-12.60676858,-15.10800422,-6.565961783,-7.363314698,-10.29552963,-0.278617678
-0.406992138,-8.467390962,-1.721689906,6.767505004,-0.037545854,3.316461853,-9.952114718,-0.63553183,-12.26437076,-4.84957957,-19.69713782,-18.72760228,-13.39982547,-12.96738716,-15.20704328,-6.471656974,-8.659219917,-13.1251136,-1.351025992
-2.021114277,-10.39910492,0.509991065,4.64170052,2.242153475,5.12558012,-7.671046352,1.13266558,-11.04508393,-4.319743705,-15.59819167,-16.15650696,-11.67964343,-10.8827344,-13.97996879,-6.690658928,-7.55869308,-13.75814493,-1.576298845
-2.302314815,-11.78370948,0.880766235,0.949244185,3.986823594,7.098504943,-4.95166055,2.905061372,-9.2609631,-5.078041916,-12.23389309,-12.78034245,-9.296016066,-7.422873874,-12.57717315,-8.579189127,-5.294781376,-12.65750574,-1.947701077
-2.176209226,-11.5289456,-0.099733948,-1.488320231,4.38517439,7.979988521,-3.204712875,4.127167537,-7.552305625,-6.247474067,-10.85667248,-10.14214097,-7.201583466,-4.221895108,-11.55500016,-11.68166615,-3.59525165,-10.78492062,-3.003890665
-2.455610797,-9.140880894,-1.478827391,-2.007185209,3.89584725,7.581485773,-3.058716009,4.82793033,-6.146017136,-6.558055663,-11.30288957,-9.134373069,-5.883389486,-2.32059417,-10.63020668,-14.06916913,-3.275748915,-8.849369913,-4.229274283
-3.081620696,-5.206495193,-2.677241296,-1.904382907,3.810594914,6.706806063,-4.191158715,5.428581689,-5.090717471,-5.342209078,-12.57067149,-9.719863993,-5.276641857,-1.67452266,-9.329002115,-14.03800642,-3.735221306,-7.06289462,-4.468316077
-3.160233198,-1.274728024,-3.864167824,-3.155624046,5.076660139,6.225508388,-5.821130183,6.169177122,-4.628969771,-3.068357664,-13.86449824,-11.28710446,-5.119278963,-1.598301159,-7.812090933,-11.59591248,-3.72634183,-5.484677003,-2.984929411
-1.753072597,0.937743309,-5.568494363,-6.931183756,7.394370869,6.240714936,-7.312490348,6.711173897,-5.189778783,-0.993328516,-15.14374597,-13.15850169,-5.287235793,-1.586404038,-6.998034037,-8.412356707,-2.625139956,-4.441936104,-0.214518231
1.248347622,0.573144878,-7.892344678,-12.56472937,9.361144598,6.129378718,-8.392728679,6.312493381,-6.950642201,-0.245896875,-16.78208665,-14.82158024,-5.777005232,-1.712741192,-7.791570369,-6.340303374,-1.01165079,-4.470878259,2.470095689
4.882878766,-1.820276095,-10.09666529,-17.40506332,9.530485907,5.349086123,-8.965583489,4.451910258,-9.44263502,-1.098823819,-18.81063649,-15.87984533,-6.448583798,-2.318951217,-10.11178169,-5.895186992,-0.054921546,-5.756591536,3.782529309
7.687766031,-4.658804181,-11.03102809,-17.82495566,7.496665463,4.166038607,-8.878142071,1.379182543,-11.68795664,-2.962810365,-20.56454476,-16.02859351,-6.916516177,-3.419021234,-12.67054724,-6.047315201,-0.326089584,-7.636289423,3.452326856
8.598216224,-6.380857909,-10.09419172,-11.2570532,4.147007098,3.555495248,-7.94806476,-1.867114256,-12.83244268,-4.970574945,-21.09578282,-15.23958321,-6.794291767,-4.487883995,-13.81384638,-5.419038611,-1.194684686,-8.775202176,2.281312413
7.489984236,-6.422038056,-7.848159889,1.628686358,0.968809422,4.343248933,-6.189230298,-3.986352784,-12.70298036,-6.537483894,-19.93786402,-13.96158032,-6.063774279,-4.869554748,-12.77231417,-3.682979271,-1.409096661,-8.045238056,1.332578144
5.035652218,-5.396944478,-5.639444496,16.08807212,-0.934608793,6.402118847,-3.920842024,-4.084807239,-11.74869556,-7.422044947,-17.47257703,-12.9727493,-5.136020349,-4.390707813,-10.25664071,-1.833978645,-0.339834019,-5.451391019,1.007286752
2.120620968,-4.4159935,-4.471410479,24.94890941,-1.333534374,8.68038118,-1.577068732,-2.043552077,-10.42584573,-7.398740231,-14.56050848,-12.80824659,-4.446572507,-3.543603287,-7.872220036,-1.137961337,1.2841807,-2.307328249,0.817886313
-0.645225795,-4.159048882,-4.130574004,22.4056819,-0.630604911,10.05860292,0.605880151,1.549972926,-8.673062041,-6.088538327,-11.82927581,-13.18462575,-3.936037526,-3.02195297,-6.850144038,-1.848294105,1.882798093,-0.432051068,0.003917448
-2.985555032,-4.483052323,-3.445095357,7.872471135,0.686573059,10.25040795,2.670200785,5.713317299,-6.078381425,-3.310876244,-9.336680238,-13.02200034,-2.978798416,-3.041010445,-7.183574158,-2.990115193,0.382363104,-0.945859238,-1.623943838
-4.703406505,-4.824312106,-1.560093771,-12.7964079,2.313638622,9.921454446,4.655710259,9.370051216,-2.645329377,0.316990923,-6.922537786,-11.24579822,-0.96365159,-3.112449118,-7.883038543,-3.443680687,-2.766843,-3.580019733,-3.402978569
-5.502269887,-4.928389565,0.896898363,-30.03911103,3.961310484,9.938499422,6.245916463,11.57547238,0.626862894,3.249825356,-4.835106617,-7.831654865,1.914833065,-2.529703801,-8.055255688,-3.237941852,-5.837208467,-6.984041389,-4.35132943
-5.128771232,-5.157752871,1.949440646,-35.94178261,5.12447229,10.47987161,6.787563801,11.76525646,2.103739063,3.79509504,-3.896756342,-4.195618699,4.41200332,-1.134169239,-7.777920691,-3.687390911,-7.155421531,-9.699015067,-4.019688736
-3.700269707,-6.050574761,-0.170866144,-28.83829722,5.236868313,10.86445461,5.809448684,10.05120235,0.746365078,1.407292633,-4.903165565,-2.439576472,4.917159759,0.370028735,-7.952195168,-6.088397817,-6.386203123,-10.97838438,-2.891694985
-1.840784594,-7.550234466,-5.249955633,-14.01336914,4.201820742,10.26595469,3.633042576,7.363860384,-2.765949192,-2.549701351,-7.738897468,-3.879486897,2.645656242,0.901237355,-9.277559314,-10.14353444,-4.680626944,-10.87943325,-1.985685514
-0.389095268,-8.700001683,-10.69756751,0.04628348,2.778354178,8.622273599,1.45318299,5.16765446,-6.109095343,-5.392835574,-11.07113007,-7.950452592,-1.605079078,-0.097054121,-11.33205275,-13.69991601,-3.599221655,-9.755877673,-2.024636226
0.16121845,-8.225223398,-13.11816243,7.256714024,2.297232129,6.840650171,0.650799124,4.732963155,-6.767958168,-4.847205781,-13.04395512,-12.38683139,-5.815570307,-2.123636911,-12.67871883,-14.28173242,-3.776306045,-7.785184268,-2.898448899
0.044168534,-5.608717883,-10.77458381,7.443214431,3.755866194,6.050290485,1.794416945,6.369998755,-3.854369675,-0.684052883,-12.50235195,-14.61909849,-8.019565293,-3.940910345,-11.99226667,-11.21035665,-4.475975748,-5.015040837,-3.844938493
0.076468033,-1.736671063,-4.987124286,5.337026,6.978511251,6.566818286,4.159413051,9.204922497,1.161638518,5.02982523,-9.749338853,-13.37906288,-7.53513077,-4.488178059,-9.238279147,-6.399948248,-4.36430809,-1.794536824,-4.125363747
1.047729614,1.536366449,0.760332326,6.014612505,10.59623586,7.547103801,6.244303576,11.7584203,5.47091209,9.346072191,-6.196742553,-9.351023404,-5.220394019,-3.611622491,-5.824310543,-2.940893211,-2.747614554,1.002877964,-3.567956325
3.092278568,2.669379192,3.406117559,10.39933136,12.9641396,7.710696118,6.934403274,12.96456041,6.953318871,10.46516851,-3.218306066,-4.47716008,-2.62862458,-2.016991407,-3.513427846,-2.525338913,-0.161468862,2.384063412,-2.540278575
5.521989253,1.577650069,2.562127854,14.36980218,13.31981698,6.518938975,6.369238406,12.86452048,5.632941172,8.827302844,-1.201774339,-0.570815576,-0.828693034,-0.55322431,-2.992929311,-3.914494392,2.165197716,2.028942234,-1.475242901
7.251954964,-0.301948237,0.615663882,12.21858758,12.23332285,4.742269186,5.768760072,12.41989484,3.437795729,6.469299478,0.409073882,1.656538646,0.135372064,0.488014748,-3.33973787,-3.899211246,3.415079681,0.729537325,-0.472322454
7.504239251,-1.118761876,0.595569624,1.78816211,10.97220785,3.856929409,6.339730898,12.59359912,2.530715916,5.263451307,2.210910389,2.527169995,0.809753714,1.441052821,-2.88138363,-0.110016847,3.819719365,-0.076934133,0.63327815
6.280653558,-0.036351279,3.547704579,-12.80697649,10.33250421,4.756819346,8.182424757,13.46556122,3.622232991,5.525512604,3.995117933,2.599893833,1.478030597,2.718280546,-0.742155238,6.632623185,4.274834304,0.549013198,1.844134252
4.289945871,2.13584753,7.56750831,-23.25447738,9.954593898,6.905827144,10.13882385,14.13776473,5.613079095,6.082562067,4.807230504,2.016923932,1.784763544,4.249150794,2.259280151,12.49245053,5.351382717,2.149475658,2.706397651
2.426387062,3.58420605,9.269147068,-22.69360565,8.723481277,8.699770324,10.72322124,13.51776117,6.729591899,5.594022335,3.883704334,0.59072802,1.215689551,5.498624661,4.171518508,13.35520613,6.673702899,3.061417554,2.524007579
1.203073716,2.875616623,6.476869609,-10.90538816,5.899472392,8.755034578,9.340145651,11.30758756,6.059719288,3.862406498,1.57107514,-1.574985631,-0.064263254,6.060562893,3.50369085,8.032458478,7.269922407,1.694535299,0.958775446
0.530899094,0.005563129,-0.035056907,4.879836143,1.972879417,7.023956874,6.744683378,8.331405738,4.152264457,1.964633884,-0.705285088,-3.686660073,-0.927387387,6.213441249,0.526552599,-0.61623172,6.568507428,-2.061100872,-1.514790433
-0.052839792,-3.642593626,-7.086311544,14.45074879,-1.535150234,4.783617003,4.36372928,5.896768273,2.27219006,1.158928413,-1.500616759,-4.623675821,-0.001460329,6.805442991,-2.823819032,-7.562220819,5.090201743,-6.466880891,-3.755286888
-0.926206455,-6.292364418,-11.36765802,11.45872908,-3.188075296,3.52686681,3.093102105,4.726622111,1.134352632,1.643525721,-0.540871827,-3.830165702,3.110670648,8.456660447,-4.390098069,-9.045851596,4.148365301,-9.011226292,-4.650899695
-2.043828943,-6.891561928,-11.57527795,-2.083790107,-2.726179562,3.731746746,2.634264358,4.387432553,0.353917776,2.350442392,1.038838677,-1.918636583,7.178619911,10.76541239,-3.419790317,-4.968948063,4.78185937,-8.17856247,-3.834101001
-2.939664457,-5.547607465,-8.817432419,-16.87523087,-1.209584604,4.564510843,1.937781972,3.722401087,-0.894139055,1.97047057,1.677638899,-0.345857656,9.958566159,12.311837,-1.065653306,1.43426141,6.864683879,-4.564535171,-1.855710133
-3.035213809,-3.119277086,-5.258520363,-22.39317572,-0.10043941,4.727248901,0.322412245,1.928754927,-2.704594837,0.242069772,0.765620753,-0.331746881,9.734121404,11.61066411,0.610222764,6.152453902,9.199877733,-0.462742635,0.289431871
-2.019670856,-0.466502139,-2.376732989,-13.92593876,-0.074395251,3.656241038,-1.767875652,-0.650051406,-3.9774614,-1.72592512,-0.802062614,-1.905108247,6.615182617,8.31019278,0.282162675,7.076546037,10.52793689,1.772968916,1.866766864
-0.050158563,1.995753225,-0.304121276,4.177526989,-0.559875507,2.001615332,-3.076447429,-2.712154332,-3.230354574,-2.438531385,-1.409160214,-3.908370013,2.540820345,3.631795887,-1.677419157,4.878816456,10.55509389,1.34520998,2.772308294
2.336602251,4.200946323,1.459896952,21.25075891,-0.353192823,0.996319154,-2.650265994,-3.019996321,-0.03255592,-1.4162737,-0.171199273,-4.988320777,-0.068418,-0.393748971,-3.640124224,1.803416568,10.08392674,-0.593173874,3.342223377
4.519231877,6.073804169,2.958641121,27.2176434,1.269743767,1.324919661,-0.751132197,-1.393151308,4.266643783,0.306284228,2.223690879,-4.739269478,0.005622554,-2.351735888,-4.122813724,-0.300445019,10.1349113,-1.996580443,3.869564094
6.095239371,7.357186759,3.530850362,19.04951813,3.922112893,2.52873639,1.285979445,1.169469239,7.308825751,1.112610604,4.045785334,-4.016893774,2.031328855,-2.413995993,-2.965805458,-1.060490389,10.86151963,-1.553344842,4.305504618
7.012329103,7.787190198,2.649863455,2.502668708,6.475425619,3.468660931,2.163256884,3.33328702,7.484687634,0.372925266,3.981741782,-4.152546495,4.033578344,-2.077760282,-1.368681457,-1.189552007,11.26203807,0.37733461,4.388206786
7.47185985,7.386720851,0.910505633,-11.91841167,8.062038725,3.396677912,1.737424721,4.51157453,5.241289898,-0.7905601,2.253122383,-5.753632499,4.335025777,-2.886198561,-0.847480426,-1.361700483,9.993005558,2.169526178,4.013542755
7.698623814,6.532905539,-0.00769504,-15.95138315,8.806843085,2.644119279,1.146813394,5.270366083,2.7981601,-0.330337776,0.422144594,-8.13675104,2.719953769,-5.163749997,-2.030636837,-1.540138269,6.607279349,2.266558525,3.444906714
7.752332398,5.70080265,1.386059388,-8.789140356,9.648583795,2.299022814,1.803182492,6.727796194,2.436140855,2.927618171,0.060222756,-9.886141221,0.396808615,-7.770587086,-4.253733471,-1.263443985,2.141617497,0.37217691,3.139479136
7.517509185,5.119914587,4.922666446,2.901960163,11.42067418,3.172294658,4.103143403,9.478051238,4.72651295,8.053242864,1.441571732,-10.04439416,-1.070008138,-9.037023336,-6.180311505,-0.38799656,-1.483727778,-2.378567515,3.35329343
6.872906607,4.663341171,8.489637704,9.986228555,14.00083156,4.99916385,6.983233062,12.96039674,8.137410761,12.47927773,3.381952765,-8.888744361,-0.923329142,-8.088050703,-6.834479427,0.58133675,-2.786303235,-4.305766204,3.905049613
5.899430183,4.054100432,9.380224026,7.325928193,16.26780379,6.610733458,8.73714414,15.80122475,10.32486893,13.87425401,4.325459942,-7.609038874,0.419294391,-5.487775417,-6.177433236,0.910765688,-1.695079664,-4.383756219,4.329364556
4.941111046,3.169093591,6.298086911,-2.731350763,16.90899315,6.939257273,8.436183879,16.83689118,10.04120272,11.91994458,3.704124449,-7.165880994,1.95151263,-2.725139713,-4.84273587,0.342351694,0.581874702,-2.859927423,4.284200805
4.430824443,2.151099929,0.40945455,-12.12490262,15.41436066,5.973578841,6.767875185,15.97646345,8.119463154,8.543926669,2.402335081,-7.332227095,3.013201537,-1.008818216,-3.390405328,-0.643059209,2.617724848,-0.92125896,3.841119877
4.572511016,1.256038299,-5.41967886,-12.7407519,12.45873691,4.818400977,5.577860569,14.22539965,6.783075801,6.4321152,1.986765503,-6.781742735,3.784382389,-0.361379104,-1.800744457,-1.243210164,3.828709845,0.238130639,3.396452058
5.104552679,0.629829567,-8.578593806,-1.995061107,9.394134878,4.789383389,6.46145469,12.89010237,7.887404974,7.047615062,3.439195547,-4.203243282,5.006714803,0.291990201,0.360249952,-0.981770339,4.676652246,0.217970388,3.288390023
5.34634094,0.252324326,-8.302122147,15.41029828,7.283761319,6.304917777,9.51207227,12.61788252,11.4966999,9.724472781,6.491376962,0.454739313,7.25125056,2.169309862,3.30823587,0.043621239,5.939639493,-0.456891682,3.469246149
4.552819691,0.075251873,-5.743840177,30.55131021,6.230900665,8.500158156,13.18370619,12.99780528,15.83753193,12.43900822,10.02860367,5.639733065,10.35597298,5.60720188,6.559648743,1.464078018,7.78491663,-0.870131919,3.530549541
2.388692547,0.156488916,-2.71619142,35.87020639,5.472885611,9.871776593,15.33060485,12.95818866,18.53799012,13.46560345,13.03610549,9.077872122,13.44104118,9.760651473,9.077522476,3.050596298,9.511942035,-0.443849414,3.069618368
-0.762847509,0.60622961,-0.338415878,29.48149422,4.104575363,9.416817803,14.61019954,11.59490127,18.13438909,12.50275489,15.14566712,9.258776505,15.43588832,13.21429411,9.970906212,4.727900749,10.20709644,0.682847868,2.099720445
-3.851957411,1.403277332,1.295858371,15.57923269,1.861865324,7.370477801,11.25977278,8.824562731,14.80216452,10.47887881,16.35859774,6.460283155,15.72383281,14.99929786,9.201061497,6.21925439,9.72941416,1.869999483,1.181202666
-5.556392115,2.339583708,2.427411981,1.187835478,-0.574719036,5.031713933,6.83614414,5.489015124,10.02130819,8.47496305,16.43118064,2.627000876,14.51839275,15.25924303,7.731843115,6.884266821,9.138503476,2.593863194,1.18245332
-4.80982087,3.256161961,2.904000872,-8.120928604,-1.904810389,3.908178905,3.284995395,2.962790771,5.682134901,6.902561111,14.78863269,0.250491734,12.81565383,15.12879486,6.991334948,6.202533585,10.13014958,2.996362414,2.849154381
-1.205690024,4.397796943,2.334811195,-10.64586191,-0.897381819,4.872162872,2.050983191,2.572119391,3.333870594,5.664554091,11.2741494,1.027432896,11.9875414,15.97074452,8.024531173,4.621482147,13.86270724,3.945864429,6.45310722
4.884016692,6.481392467,1.009823665,-7.989040354,2.980450842,7.869760989,3.680944243,5.100408657,3.869978382,4.964055537,7.06009714,5.08485428,13.18250489,18.51482043,10.91809467,3.863660729,20.05591254,6.514484909,11.67946485
12.47791501,10.24266884,0.508691189,-2.665291129,9.303741685,12.19444467,7.873254867,10.49255091,7.461158485,5.757423326,4.633267711,11.07608255,16.73958141,22.42463752,14.84740982,6.028616253,27.03442544,11.17991844,17.73868485
20.32888401,15.71756625,3.041506651,3.915466765,16.87320783,16.93676474,13.67666907,17.79153598,13.47941677,9.209867569,6.430640088,16.917653,21.8677662,26.4876521,18.64477462,11.88705324,32.67221341,17.28817436,23.60656593
27.2959622,21.8823276,9.741249748,11.70212565,24.219577,21.26044197,19.69012044,25.37010668,20.47862548,15.549633,12.95143951,20.71138405,26.836574,29.25362507,21.46001592,19.72752078,35.55555468,23.2013935,28.31574861
32.62427815,27.10678918,19.29400468,20.83214793,30.19824085,24.48489178,24.3776055,31.49714248,26.54419337,23.41922334,21.8825765,21.48425611,29.7373906,29.75390733,23.09072261,25.97462591,35.59460741,27.1323135,31.24678051
36.05844451,30.2168508,28.28720944,30.49744968,34.40971362,26.1782759,26.61625384,35.085704,30.11746104,30.4806412,29.19704034,19.55242271,29.51146921,27.95489147,23.84582145,27.4611018,33.7802016,28.18154697,32.33000657
37.76868881,31.35598986,33.32903614,38.97906077,37.23258101,26.35723734,26.29086559,36.22482655,30.87621862,34.91641773,31.66876455,16.40902619,26.63747422,24.75397953,24.13687305,23.75233036,31.39254304,26.8862001,32.02914615
38.13893974,31.8684185,33.42485081,44.69924409,39.42678195,25.61104301,24.47358799,36.07917444,29.96148262,36.5989235,29.01995828,14.1033427,22.94413373,21.52902971,24.13715423,17.63477877,29.26523453,24.8581761,31.04742275
37.53708378,33.17348977,30.69227469,47.17492219,41.52165252,24.87843936,22.86252195,36.09730472,29.19380733,36.91093275,24.05590952,14.26285143,20.5385422,19.44959439,23.73899623,13.20542914,27.53969901,23.70810418,29.89063278
36.20703248,35.4838873,28.7214493,46.97476343,43.38771906,24.8695806,22.6983568,36.99885331,29.72905929,37.35387501,20.62540319,17.1894406,20.49434577,18.89208217,22.78452765,12.94096407,25.92376508,23.99110312,28.5867235
34.34478616,37.45993371,29.79304061,44.87454317,44.31999158,25.51679697,23.88983366,38.27200697,31.17143665,38.16221817,20.91408421,21.58991901,22.20337778,19.28632702,21.33748657,16.04325945,24.14100366,24.94238978,26.80635301
32.27355956,37.1992576,33.15228723,41.23123776,43.61213691,25.94600367,25.0515573,38.60782124,31.91129899,38.16407377,24.0817528,25.2359111,23.87747335,19.50919995,19.74766566,19.38660222,22.22292561,25.21077692,24.33038211
30.52493517,33.84821285,35.72316899,36.30192594,41.20420559,25.10383926,24.51426818,36.99062744,30.49490717,36.03014519,27.17818435,26.25253725,23.85018718,18.61200833,18.43837813,20.26445171,20.49693269,24.03310248,21.48996641
29.67442682,28.52181587,34.66478256,31.09886485,37.8743554,22.61765348,21.59008432,33.60592175,26.93729147,31.78826194,27.49254582,24.22695905,21.71456059,16.43131469,17.58521713,18.6265243,19.35670429,21.92042029,19.16228464
29.97358074,23.6944773,29.66543511,27.57591755,34.76376945,19.20457714,17.12226315,29.81360707,22.85588082,27.18323769,24.44854771,20.36269035,18.45732442,13.6834458,16.9664151,16.92346141,19.0088787,20.28108046,18.23488918
31.02892553,21.44464761,23.10741165,27.42357594,32.56041178,16.25794136,12.87880541,27.15441836,20.23305312,24.43485218,19.65876767,16.55131367,15.54306044,11.48503684,16.14883595,17.71875248,19.3500713,20.24835267,18.91412382
31.81764431,21.91040071,18.0248713,30.21793637,30.98427105,14.89807022,10.26157674,26.15334176,19.77328505,24.3707135,15.32115866,14.03729728,13.73228161,10.64287584,14.89820744,21.16055162,20.01982905,21.64837892,20.4473504
31.13092315,23.20518945,15.61743843,32.73447091,29.0182145,15.22473932,9.351075942,25.89146024,20.22399184,25.54203484,12.44895272,12.67129641,12.60198631,11.21077655,13.47953272,24.55911572,20.5791689,22.97514841,21.54605298
28.22442954,22.89888211,14.42826815,30.6625623,25.7407203,16.3518662,9.027678491,24.73063583,19.29424199,25.18502562,10.41643821,11.29111706,11.12118332,12.59241824,12.54688228,24.52556244,20.71399467,22.45185844,21.23595918
23.2712424,19.90803135,11.86406938,21.9282376,21.11517585,17.16228843,8.025956001,21.64675759,15.50254469,21.36475515,8.059742527,8.876871787,8.735060176,14.04796329,12.62931425,19.90780797,20.35911058,19.37294202,19.48809071
17.31657412,15.30104799,6.737443626,9.030273931,16.10629656,17.13783648,6.021411414,17.1135693,9.485349777,14.60998625,5.199916054,5.515616116,5.989008135,15.17559122,13.58221461,13.01516618,19.68052137,14.6677348,17.13796899
11.76380689,11.39667036,0.629434299,-1.974720365,12.03271289,16.59284101,3.845517262,12.81389595,3.681220322,7.691569308,3.121999909,2.3838534,4.132039181,16.00918275,14.48055233,8.012070212,18.93308566,10.23280288,15.17438437
7.730570355,9.905371206,-3.158778539,-5.712658517,9.681552551,16.17861094,2.670367904,10.38016054,0.582161836,3.647768855,3.498456799,0.772240056,4.024479513,16.72193431,14.13957046,7.720453363,18.28920991,7.561622367,13.99496191
5.6675377,10.61180713,-2.281376724,-1.92625549,8.886132896,16.15343283,2.870905092,10.13795813,0.885974782,3.541823748,6.645775127,0.961713552,5.279961948,17.24759372,11.9432619,11.40778037,17.75269569,6.751977715,13.23709022
5.403341163,11.62455668,2.521982009,3.689193602,8.858479898,16.08502613,3.541981921,10.82757302,2.972467103,5.648036286,10.65327713,1.873008938,6.386051736,17.16299108,8.347330221,15.33434824,17.20237677,6.639317429,12.28345083
6.465287969,10.93905003,7.634638691,3.593422499,8.935265018,15.23920621,3.107690763,10.51889382,4.09989305,6.665692362,12.27731444,1.778102622,5.739330242,15.91915075,4.605044966,15.5838237,16.50123188,5.872436897,10.95239077
8.379971736,8.029320341,9.06453814,-5.238857991,9.08636211,13.2922527,0.567757038,8.029926322,2.404871618,4.050609996,9.084977443,-0.477959601,2.789348298,13.21061146,1.857024031,10.89599098,15.55603695,3.999219222,9.732121043
10.77131145,4.220686334,5.375687104,-17.75882812,9.799836171,10.72920942,-3.590495852,3.812300118,-1.782008306,-2.206594245,1.301166839,-4.660996248,-1.57663526,9.190979796,0.273401861,3.327145529,14.27665751,1.681018861,9.339142041
13.30761363,1.616168081,-1.175167456,-23.54947908,11.53287634,8.579816755,-7.527079225,-0.291440706,-6.218218033,-9.533956065,-8.026844142,-9.288389767,-5.641395493,4.41570455,-1.03793405,-3.592174643,12.50881121,-0.066542517,10.00158458
15.67474115,1.48462419,-6.169853822,-14.52689876,14.27597694,7.71975995,-9.144789734,-2.178202833,-8.327880371,-14.37334861,-14.72717189,-12.53605133,-7.922587236,-0.373295074,-3.221674319,-7.551423225,10.07094676,-0.885828104,11.13201855
17.66497799,3.363914195,-6.113769241,7.937035397,17.60744588,8.31478062,-7.364168603,-0.688299392,-6.880454565,-14.26936345,-15.92880171,-13.2215179,-7.892849438,-4.435151835,-6.578277657,-8.856662647,6.93556851,-1.453122116,11.7200509
19.28377711,5.482663851,-0.852119227,32.29113107,21.10476082,9.823035493,-2.721931292,3.860356364,-2.629397667,-9.148872591,-11.62152218,-11.2611636,-5.952568369,-7.129854511,-10.09107403,-9.645466493,3.424059295,-2.924491691,11.13496278
20.70294944,6.06210216,6.356581029,43.84734815,24.63017928,11.47478243,3.022263154,9.990374127,2.370089563,-1.178300117,-4.422639464,-7.49532407,-2.904195057,-8.02161993,-12.0393713,-11.86516966,0.202761909,-5.965919909,9.652451804
22.02690877,4.474831179,11.07180017,34.96407804,28.15993065,12.77353048,7.894867313,15.85956376,6.112565314,6.498626307,2.145762405,-3.199183047,0.504765744,-7.064576823,-11.28620836,-15.79069726,-2.007782236,-10.1939342,8.246403013
23.06241034,1.497660701,10.59294311,10.90384188,31.33150625,13.62138002,10.63166971,19.99222614,7.68644972,11.3116809,5.661240641,0.368035991,3.645896716,-4.775673451,-8.238474899,-20.12105254,-2.842993522,-14.43146942,7.8198443
23.35352856,-1.329848025,5.606659842,-13.29213528,33.24090686,14.06603526,11.01866877,21.64140189,7.440002921,12.31838986,5.860425156,2.276572884,5.856034047,-2.167621222,-4.681697563,-23.20953522,-2.496784738,-17.45328158,8.52968155
22.54671576,-2.624157822,-0.407786307,-22.9787851,32.85222195,14.00949213,9.637411139,20.80835097,6.399590464,10.37546808,4.28041725,2.191685787,6.477673652,-0.320071823,-2.561340794,-24.1275503,-1.507034717,-18.5327464,9.764350084
20.82894013,-1.727239554,-3.450503935,-13.80720058,29.80373717,13.20241321,7.359791172,18.09046321,5.505482077,7.478922016,2.937309616,0.593061965,5.251420991,0.224543379,-2.622840517,-22.70619889,-0.254809169,-17.41020062,10.75220818
19.03214214,1.252037386,-1.391806827,5.909526597,24.93811216,11.52294879,4.954072728,14.45826278,5.164167139,5.641124451,2.995274042,-1.263366938,2.742712177,-0.185662238,-3.942905832,-18.87158601,1.40909682,-13.94253903,11.23172301
18.20169135,5.681475529,4.963564466,22.00169835,20.00857272,9.238235403,2.934016448,10.96063604,5.245269407,5.847226686,4.221944859,-1.856416066,0.291635808,-0.540366728,-4.680579702,-12.29404736,4.04605573,-8.016258126,11.58551836
18.86109127,10.63844968,12.59509451,25.13958733,16.66533245,6.959400056,1.561654572,8.383078343,5.340595697,7.627887419,5.423004106,-0.260535216,-0.691614404,0.111406413,-3.426575196,-2.942474515,8.045628587,0.021277456,12.34425019
20.51427803,15.07595415,18.10600645,17.27776124,15.4561844,5.300094096,0.870075128,6.996581688,5.048694955,9.515694643,5.428878615,3.179871804,0.332451632,1.95328643,-0.109623544,7.959506411,13.02800824,8.821253406,13.54206633
21.82016828,18.05200799,19.47462333,9.115943699,15.61386443,4.533572564,0.671370045,6.560789624,4.168665127,10.14211546,3.927605213,6.944092092,2.583435804,4.256519192,4.152448017,17.7157424,17.77056,16.11359485,14.53513335
21.39330527,19.06455434,16.76432585,10.8497659,15.7827565,4.538021146,0.605906054,6.592066671,2.787250365,9.252527417,1.614267599,9.282459993,4.428234465,5.932049478,7.989859199,23.30648582,20.82225408,19.71924041,14.46889385
18.69651085,18.29692631,11.60919868,23.60350728,15.07540525,5.037357932,0.274115551,6.692283385,1.242968444,7.870462566,-0.386639904,9.405728331,4.484090028,6.356781376,10.66440912,23.2821523,21.41149457,18.94511883,12.98990808
14.3955281,16.5090959,6.034735208,38.22617358,13.60250582,5.866983831,-0.593419622,6.678575769,-0.062699295,7.401711826,-1.3793255,8.012352608,2.554124469,5.817444586,12.23862361,18.93892185,19.97092205,15.28160275,10.57743462
9.935067442,14.55538019,1.448316304,42.26779226,12.10369606,6.992934758,-2.023151771,6.446695449,-0.956371533,8.31122267,-1.599779471,6.693446331,-0.29689398,5.218304224,13.07861079,13.70808461,17.85584355,11.68040066,8.210853248
6.667877388,12.86546555,-1.654489452,29.61707691,11.09480944,8.286183162,-3.802188737,5.776432124,-1.695864273,9.463296828,-1.976752459,6.639408549,-2.553308,5.299233238,13.30384125,11.05429895,16.44124084,10.74337951,6.675445936
5.169460223,11.32285001,-3.313825448,5.392624822,10.34577962,9.328142903,-5.577500251,4.367684373,-2.863781333,8.813710153,-3.308816876,7.671072772,-3.299593465,6.00861665,12.72674056,12.36620696,16.26006408,13.06084861,6.109579689
5.172141129,9.658906474,-3.570733716,-17.47105182,9.165729538,9.520716061,-6.98620435,2.165153649,-4.920605225,5.079660431,-5.487883143,8.390998129,-2.729316148,6.536785504,11.24605781,16.32679884,16.80268042,16.91606609,6.148187077
6.03781486,8.003692548,-2.305341757,-27.12558667,7.209460017,8.483696151,-7.771047044,-0.317220539,-7.695466579,-0.891102253,-7.427383751,7.341786643,-1.812627816,5.961461388,9.170982787,20.08115789,17.07007232,19.57925571,6.459873571
7.293910934,7.045922431,0.432619342,-20.48476643,5.023899725,6.41674735,-7.869620501,-2.074860496,-10.24780747,-6.27050078,-7.853029487,4.216769305,-1.493210323,3.959987619,7.045401759,21.17821401,16.39581467,19.22174568,7.124179514
8.795256094,7.573090619,3.984757729,-4.343241486,3.775126045,4.082074252,-7.463487504,-2.207080358,-11.3346933,-8.036399798,-6.413761528,0.11942074,-2.087011292,1.018681697,5.113929675,18.84755808,14.88974167,16.0454967,8.470742009
10.47648187,9.737828531,7.084834869,10.17973728,4.340491797,2.3668084,-6.944253388,-0.653997973,-10.25845458,-5.179317855,-4.21737707,-3.326606436,-3.282561725,-1.981721136,3.029102002,13.92656316,13.2172822,11.88535434,10.53611333
12.04789077,12.7065794,8.499408865,15.21543082,6.546772707,1.745967094,-6.759952126,1.542086145,-7.501718241,0.355957556,-3.236043918,-5.235974222,-4.5890635,-4.40664635,0.234810545,7.913396967,11.98444881,8.74141081,12.68899663
13.01525271,15.07464267,7.904008451,10.28730466,9.240693941,2.059833746,-7.180785519,2.790919322,-4.616314343,4.823631075,-4.881085572,-6.003644526,-5.743697928,-6.191608569,-3.224286557,2.155916727,11.27979823,7.456159525,13.8581437
13.05889001,15.78057657,6.252332721,0.861759522,11.16443936,2.756389226,-8.115766605,2.029276161,-3.333270765,5.180665992,-8.775969783,-6.688577515,-6.731502146,-7.634483187,-6.266580953,-2.272900862,10.7237014,7.489288209,13.26205315
12.41687503,14.79205981,5.184246158,-6.512027804,11.90260493,3.364176194,-9.120905346,-0.456974069,-4.448154989,1.137239483,-12.73905681,-7.831068442,-7.501973619,-8.923156785,-7.319422327,-4.341469693,9.906305491,7.753515158,11.06199738
11.85148773,12.99499864,5.782029406,-8.360989515,12.09434596,3.793920182,-9.623266689,-3.125349806,-7.251493397,-4.733619772,-14.14422862,-8.807878025,-7.759133608,-9.867793484,-5.591330944,-3.179008261,8.782889692,7.631770352,8.371929977
12.11735998,11.38602948,7.615248955,-5.164325431,12.73442835,4.254281968,-9.222932903,-4.180155342,-9.927260985,-8.855397029,-11.75486188,-8.354180159,-7.094669406,-10.07031821,-2.025706727,1.225410691,7.691281408,7.287542023,6.563236855
13.30735373,10.26789093,8.923884699,0.506384402,14.17132294,4.922646302,-7.869450546,-2.77788651,-10.67482562,-9.053571278,-6.672968153,-5.822671773,-5.358664047,-9.333093367,1.035921692,7.349590931,7.03351886,7.134267752,6.371830969
14.62192209,9.140076248,7.940994667,6.156080279,15.66852271,5.70890916,-5.811309701,0.444219269,-8.812227082,-5.771488501,-1.630405834,-2.042637693,-2.897693375,-7.891657908,1.449248059,12.38213162,6.957822679,7.120896626,7.470160937
14.81826283,7.355112037,4.382410391,10.0799156,15.91004865,6.324469777,-3.403654523,3.879220869,-5.150318917,-1.377271687,0.918699948,1.067046089,-0.394098598,-6.243276558,-1.045944092,13.6227618,7.329198718,6.609702612,8.789454635
13.0651146,4.918338508,-0.135598522,10.91520554,14.03101418,6.560928026,-0.959996712,6.073200474,-1.444737076,1.686297681,0.506643166,1.908984725,1.587902297,-4.74052217,-4.461123178,10.20995673,7.963941453,5.000309518,9.298613612
9.586684058,2.668297561,-3.226020106,7.543887868,10.32710419,6.493009935,1.248544387,6.601740293,0.658057412,2.413304624,-1.123868116,0.493703327,2.959819803,-3.343212724,-5.963112623,3.849017307,8.843368032,2.495734696,8.642273147
5.608243503,1.626702127,-3.623978086,0.114607507,6.089242769,6.417606164,2.926869789,6.101424668,0.491228616,1.406130417,-1.453553413,-1.509958694,4.056223958,-1.76337102,-4.04329357,-2.16898008,10.06404775,0.223563363,7.224925383
2.621419289,2.071880962,-2.328155275,-8.789389733,2.74153014,6.610862196,3.796103023,5.561335653,-1.426455112,-0.096719443,0.815006014,-2.067838676,5.225664069,0.144911926,0.263589412,-5.067451635,11.57188879,-0.509447753,5.795365502
1.477983063,3.182375477,-1.952698531,-14.57444915,0.99456225,7.152449311,3.801406011,5.53161169,-3.849200558,-1.293215376,4.720471056,-0.391600935,6.440205677,2.135455718,4.134687393,-4.302824032,12.97106676,0.748711618,4.9270579
1.928447768,3.635698885,-4.64716353,-13.19194661,0.633957794,7.969419249,3.322402327,5.871999046,-5.538006742,-2.101929316,7.750763694,2.450164603,7.278520891,3.707611923,5.127787084,-1.663032827,13.65006321,3.157333982,4.760121958
2.885515553,2.713802205,-10.16304681,-4.227744209,0.979658201,9.001989324,3.115659262,6.126275229,-5.8160173,-2.65334241,7.740471543,4.427762709,7.296444569,4.500868741,3.031502679,0.246917462,13.16709849,5.151967155,5.072753476
3.18592676,0.985977887,-15.65879167,8.055001762,1.516352267,10.25800149,3.886756236,6.068702395,-4.715162189,-2.724718738,4.508098996,4.217140644,6.448827876,4.561383347,-0.09123321,-0.089015321,11.57424359,5.58583717,5.492965014
2.320336366,-0.052515427,-17.5464496,16.98352204,2.156238903,11.65324209,5.729660288,5.888988065,-2.773472335,-1.795438889,0.012878103,2.268365417,5.181949832,4.214745604,-1.671412361,-2.230549735,9.391247962,4.527066378,5.652957515
0.68495181,0.848711969,-14.07358303,17.67030408,3.022870602,12.80506056,7.882569963,5.889109633,-0.695877523,0.327473256,-3.044119071,0.409200344,4.109781305,3.66432562,-0.730907434,-4.466368306,7.244665954,3.088882322,5.261160198
-0.7314905,3.638124226,-6.696728833,10.0670316,4.101007077,13.06865905,9.093757717,6.052640132,0.93520444,3.011340869,-3.093546058,0.326354998,3.550223461,2.716635519,1.415442789,-5.32758552,5.481511367,2.475709468,4.188684321
-0.959035744,6.878721744,0.816329949,-1.365689478,5.163954705,11.91784334,8.434303579,5.961705308,1.823698066,5.055367561,-0.670599922,2.171986434,3.308420526,0.933699765,2.372955632,-4.65850516,4.073340877,3.050121549,2.599808823
0.433354228,8.728157103,4.893004566,-10.92539709,6.047167821,9.421188958,5.994337254,5.18810371,2.003621276,5.610125269,2.149416572,4.40854985,2.869472793,-1.892169147,0.702556555,-3.492281005,2.842395701,4.150689768,0.998243967
3.169445524,8.230036767,4.40360396,-15.17350016,6.951369356,6.388177275,2.916463879,3.812960086,1.786708552,4.98266333,3.335656677,4.976257476,1.817312175,-5.376866346,-2.961587598,-3.032351582,1.740331528,4.721234447,0.03091595
6.470403784,5.932480531,1.045122038,-14.08471002,8.4127252,3.968106953,0.692495263,2.578622107,1.63451363,4.567252969,2.303226693,2.818466801,0.135337988,-8.665662522,-6.601589092,-3.710344309,0.882879295,4.149249312,0.079912536
9.466536166,3.398977678,-2.254737927,-9.507032898,10.90592818,2.93717151,0.222765788,2.487553438,1.992060914,5.869236184,0.169109499,-1.41996366,-1.813711909,-10.98254029,-8.6173047,-5.072535044,0.316353899,2.612555598,0.92291297
11.58899052,2.039901317,-3.529872028,-2.911172626,14.41643865,3.213056626,1.33833181,4.149089288,3.14588951,9.380523769,-1.199598103,-5.974108029,-3.54457187,-12.15225609,-9.112114087,-6.43204585,-0.20538639,0.734576038,1.785300991
12.76047693,2.176205918,-2.856178665,5.308671394,18.36453008,3.995308689,3.126126696,7.393002171,5.162134862,14.20854493,-0.564280052,-9.248399979,-4.6960166,-12.63840532,-9.551057632,-7.574935127,-1.131355711,-1.033651636,1.839190715
13.30921086,2.998399411,-1.652516701,14.60535951,21.94145853,4.429848499,4.752256283,11.42717854,7.90662121,18.72810709,1.859337324,-10.77202047,-5.105209544,-13.05886989,-11.16229134,-8.860438522,-2.709976301,-2.701432968,0.820884335
13.65935439,3.352549958,-1.021795518,22.88640743,24.5421962,4.255966969,6.079206205,15.34544353,11.09160616,21.68163286,4.612985575,-11.18231605,-4.759032719,-13.60874332,-13.58094598,-10.68280875,-4.618372781,-4.46938182,-0.718607902
13.97008455,2.67491467,-0.655474459,26.98090723,25.91510758,3.904456034,7.560276714,18.52381628,14.29255014,22.83419578,5.984048092,-11.44969572,-3.779775576,-13.91151336,-15.01349078,-12.85537899,-6.017920665,-6.234950074,-1.76912739
13.94634209,1.360074436,0.775063809,25.04248323,25.95591798,3.984325894,9.523351252,20.61371754,16.94343404,22.74368526,5.049846056,-12.10643539,-2.503798862,-13.43711181,-13.8344064,-14.52150305,-6.091726348,-7.423021942,-1.586795653
12.96934293,0.348374537,4.144007181,18.69664309,24.4454688,4.625065068,11.50191576,21.27140695,18.38981055,21.99135498,2.132284336,-13.07717977,-1.526818746,-12.10601781,-10.22726783,-14.70548843,-4.678333911,-7.380317078,-0.242497963
10.50223852,0.318181964,8.636637052,12.48706991,21.0933789,5.269238197,12.26646248,20.03454756,18.07397198,20.62766019,-1.523986077,-14.0721428,-1.536300144,-10.51175841,-6.395558191,-13.06135492,-2.475515001,-6.026056182,1.426762988
6.525924836,1.113308185,11.8605215,10.45720408,15.92712551,5.118426195,10.64022125,16.60181532,15.82508682,18.29635145,-4.548654781,-15.01362579,-2.91958544,-9.518664448,-5.070923156,-10.23012937,-0.604720299,-4.171083941,2.415724084
1.70496997,1.800900394,11.29778779,12.56162056,9.665683138,3.86107317,6.509963561,11.32885753,12.09962136,14.82943818,-6.187451464,-16.03943654,-5.385337994,-9.547491905,-7.490264917,-7.548756832,0.151007504,-3.157209095,2.228674498
-2.856046187,1.280872033,6.036174908,14.27789832,3.642237275,2.053467466,1.222111943,5.446919674,7.976079866,10.69512723,-6.56119789,-17.12810512,-7.920395745,-10.15562058,-12.45621399,-6.335066292,-0.15511187,-4.020695506,1.138071452
-6.125565545,-0.983302622,-2.464624757,10.31527831,-0.799929628,0.80880641,-3.020561012,0.65674796,4.813247285,6.879512754,-6.339317852,-17.80442095,-9.209353289,-10.28626368,-17.18395413,-7.214214852,-0.775663518,-6.77804574,-0.109128605
-7.595816473,-4.568658898,-11.06308073,-0.375712738,-3.029035825,1.026819768,-4.404438362,-1.740620302,3.683293292,4.348009556,-6.080391991,-17.31456096,-8.306681766,-9.003622328,-19.18693374,-9.836810062,-0.898970662,-10.34842688,-0.836750759
-7.392396286,-8.242790461,-16.55655171,-12.6901672,-3.395835402,2.770092094,-2.555589658,-1.577626852,4.859200657,3.596611912,-5.698668433,-15.19175034,-5.147399408,-6.134684057,-17.70569501,-13.05394731,-0.229563179,-13.15476159,-0.796215969
-6.024664771,-10.55381393,-17.19332131,-18.72605654,-2.82749036,5.252950559,1.298628595,0.14577351,7.649251492,4.634676598,-4.455330876,-11.72623599,-0.584454329,-2.340296831,-13.71475127,-15.40566822,0.934117321,-13.977604,-0.13018779
-4.01789373,-10.53963107,-13.28734681,-14.12874818,-2.077300358,7.396271844,5.116518912,1.982434844,10.70490565,7.254553105,-1.546504388,-7.898770014,4.03509356,1.369968757,-8.799208422,-15.72089957,2.115202095,-12.52013644,0.901447104
-1.714085585,-8.193950303,-6.811860581,-2.225474611,-1.246366971,8.470192715,7.206748612,2.990121505,12.67184521,11.16481291,3.072412924,-4.794142034,7.45968609,4.227681751,-4.038948773,-13.62598076,3.136806765,-9.409661138,2.123437165
0.666841991,-4.447620507,-0.377631328,7.87525517,0.059146714,8.35203005,7.024353894,3.224079329,12.85498702,15.79006937,8.241545898,-2.957545413,8.958189238,5.940055441,0.212068367,-9.743948425,4.223095059,-5.74962772,3.422274616
2.867293086,-0.661253152,3.871730598,8.208563764,2.13908521,7.320390563,5.199060412,3.45662783,11.54454494,20.02977167,11.98741116,-2.187877175,8.44380811,6.498801825,3.764283661,-5.410138959,5.669445739,-2.553131156,4.618279785
4.573987558,2.107621576,5.060898019,-1.478581128,4.757367199,5.703819547,2.947043985,4.41951323,9.823051402,22.474333,12.65636989,-1.86500969,6.380244915,5.892468581,6.111581629,-1.946110971,7.438481857,-0.345040295,5.453135129
5.613912827,3.640201956,3.855032584,-13.0003921,7.270425052,3.748792489,1.354989566,6.207532743,8.955254643,22.20691639,10.09966497,-1.459096676,3.613888591,4.085636033,6.695613375,0.130478385,9.091545613,0.954911988,5.752393821
6.181983186,4.553365117,2.083624449,-15.80800782,9.206558037,1.764070545,0.966129333,8.296374446,9.700829444,19.66943046,6.041231833,-0.775226083,1.178867643,1.286758481,5.681226004,1.401888225,10.12415579,1.890777827,5.587699276
6.828176645,5.745369351,1.778461836,-5.258245492,10.74284211,0.26760977,1.781305749,10.09430443,11.94303957,16.78619762,3.224270586,0.19413671,0.028098171,-1.835686563,4.339179858,3.034348048,10.37471777,3.142063116,5.221432884
8.114917551,7.665529803,4.015184261,13.51878706,12.6016671,-0.154612008,3.502638487,11.51853277,14.84730949,15.99371137,3.779859808,1.53291667,0.689576303,-4.336089936,4.398944271,5.733037709,10.10457465,5.113659793,4.832936498
10.16515727,9.938801302,8.219190595,29.35826173,15.41182202,0.746213616,5.776729703,13.10017678,17.44055623,18.71536151,7.87876468,3.413356873,2.99432924,-5.543340575,6.727955259,8.963921244,9.673349293,7.61895543,4.286002168
12.47527683,11.63688877,12.47458374,33.51366538,19.07760824,2.565741989,8.306543781,15.53252937,19.22787311,24.37729803,13.60760632,5.790966966,6.092156206,-5.544276884,10.46565737,11.16411595,9.140461753,9.868468456,3.215594657
14.19855324,11.99451681,14.76436765,26.11307987,22.71823186,4.372553771,10.84160631,19.02693408,20.42605041,30.73723944,18.17999614,8.108067175,8.834819695,-5.136157028,13.49542722,10.93068051,8.210528562,10.863378,1.426103665
14.72824991,11.00295232,14.34575495,15.53120633,25.25325084,5.266151655,13.11626102,22.97359142,21.64524224,35.29811691,19.64669613,9.407180281,10.33787373,-5.208203764,14.01101664,8.31551785,6.607979155,10.02641279,-0.743884117
14.13728343,9.393224366,12.24037434,11.33894414,26.14842791,4.954330455,14.79658261,26.15258072,23.24361357,36.73203928,17.92799295,8.908005901,10.3639702,-6.024095867,11.91788082,5.111471544,4.524434719,7.664630224,-2.481661608
13.11077035,8.016755145,10.40172135,16.64293236,25.69962842,3.879083338,15.48319589,27.33999745,24.84315039,35.28202055,14.5262557,6.635225779,9.27855064,-7.006442855,8.861834391,3.710573796,2.665562428,4.88707247,-3.036434025
12.39761652,7.144218852,10.14519565,25.9772663,24.64054143,2.785742262,14.81522234,25.91729522,25.41667525,32.01037259,11.26961451,3.544463773,7.651757116,-7.223556516,6.823263038,5.278441524,1.77436294,2.951799499,-2.331850361
12.19854326,6.28913781,11.06870609,30.25508673,23.44755875,2.106150039,12.68152711,22.15114306,23.95703419,27.73032571,9.108953949,0.952104033,5.851512584,-6.179023344,6.4742522,8.669520653,2.019350805,2.459488615,-1.114690703
11.97620788,4.721083427,11.36153277,24.53586829,21.96157113,1.684409302,9.443400635,17.05489791,20.28844872,22.63160621,7.830534195,-0.347544408,3.952767111,-4.233079502,6.735424259,11.06201226,2.821706842,2.980976403,-0.441980252
10.85257531,2.226601721,9.294429753,12.22699586,19.64219469,1.06258536,5.979366791,11.96199451,15.41706986,16.84723113,6.730309885,-0.595766838,1.98829148,-2.293838325,5.931641127,9.979283557,3.343161605,3.420586802,-0.87259624
8.302067993,-0.563770335,4.69673931,2.431132249,16.19806757,0.037973501,3.403300247,8.020028556,11.09652955,11.22766844,5.523836589,-0.792367584,0.251086117,-1.047050069,3.518048443,5.212119738,3.252262256,2.864075752,-2.021895351
4.620347295,-2.603013093,-0.792908444,2.763702251,12.0109926,-1.040097108,2.521083041,5.786586886,8.832980934,7.328801485,4.665749783,-1.83162751,-0.688371262,-0.395122286,0.800659189,-0.864981781,3.08082802,1.275032977,-2.873082112
0.824477305,-3.262825171,-4.912454481,13.45174382,7.972976858,-1.523597306,3.342735812,5.060931507,8.979572727,6.367947589,4.856820443,-3.731270505,-0.320195698,0.405774275,-0.069795992,-4.894588982,3.790549133,-0.48812047,-2.613751112
-1.929454885,-2.843154773,-6.415473532,27.19967953,4.887409013,-1.048084448,5.025684739,5.038152726,10.54554299,7.991148094,6.258228083,-5.566423411,1.381067187,2.030114263,1.984693422,-4.87529478,5.861073545,-1.332786502,-1.311013334
-2.984653307,-2.281565002,-5.819139714,34.53811751,2.963735397,0.090996542,6.37412814,4.770074049,11.86575592,10.08272783,8.161238795,-6.163506796,3.819064053,4.410406214,5.822510087,-1.475326491,8.682613274,-0.743011137,0.140954566
-2.45333774,-2.290551598,-4.705197966,30.21908753,1.827928032,1.128967902,6.604606546,3.741794328,11.68002222,10.0764486,9.41044241,-5.016882262,6.066183666,6.687423458,8.788311935,2.637411822,10.84053893,0.882184705,0.758061615
-1.003916612,-2.682087248,-4.268335384,15.93024067,0.993785683,1.441173826,5.838063168,2.227811665,9.891888472,6.896318491,9.19295938,-2.732040352,7.366399599,7.822330632,8.771752449,4.857573946,11.14150454,2.582828978,0.265365533
0.600065164,-2.506767754,-4.41812501,-1.995643042,0.336223412,1.03881692,4.93698815,1.142429522,7.517182764,1.945554406,7.513774725,-0.675270089,7.47222656,7.350069792,5.917997491,4.461619105,9.569465883,3.5502291,-0.71372507
1.857802257,-0.925234252,-4.177652476,-17.24976154,0.138651691,0.513166647,4.793938866,1.399711388,5.911729786,-1.806967352,5.018135109,-0.098764495,6.608461974,5.659770942,2.529931066,2.830990625,7.362479934,3.618061939,-1.223842506
2.600437333,1.943473555,-2.902456248,-26.7170792,0.70696072,0.481587955,5.619599567,3.177972722,5.858094407,-2.056955681,2.441126541,-1.355193557,5.189538588,3.622039221,1.206512913,2.057317401,6.100273945,3.196606483,-0.800565436
2.853626051,4.975220663,-1.086150984,-30.33524093,1.953381301,1.035733446,6.799416114,5.637528251,7.144790946,1.036445226,0.261798365,-3.695993785,3.598176386,1.940794048,2.751748771,3.169435452,6.514805005,2.805120306,0.155146919
2.708403017,6.891870534,0.069339068,-28.96849001,3.374907292,1.688565442,7.440638811,7.381631064,8.874757461,4.978698127,-1.158529867,-5.716668412,2.198735618,0.793750209,5.586559976,5.405493162,7.981324966,2.660045667,0.752564393
2.326815939,7.297914294,-0.073007124,-22.96147335,4.469405888,1.86297205,7.164910049,7.411935308,10.2076885,6.953209256,-1.252335436,-6.120601116,1.457608874,0.000279144,7.129582105,6.987082664,9.093592008,2.650728607,0.387774272
2.016470054,6.979475429,-0.74539594,-12.66887787,5.206012485,1.469772034,6.48537216,5.908686169,10.96345191,6.10526077,0.707121629,-4.36441233,1.891655215,-0.553795981,5.963899765,6.611291678,8.831856434,2.633009021,-0.756300009
2.207772976,7.151755418,-0.330652599,0.154429606,6.091556323,1.036256204,6.436036968,4.222067587,11.66604215,4.207651338,4.993874678,-0.904345703,3.738001518,-0.716821118,2.974566511,4.396778606,7.350580276,2.681883024,-1.896654262
3.252499402,8.268506429,2.021009168,12.19261139,7.724846305,1.250513196,7.735211714,4.005172187,13.04079074,4.120181904,10.72397935,3.003306915,6.58211805,-0.308115126,0.543749276,1.620315574,5.75095784,3.025876769,-2.325341687
5.148493442,9.441812995,5.162392481,20.36161905,10.19286197,2.320119294,10.15657814,6.064193581,15.3603173,7.280463017,15.83176071,5.834225856,9.346022872,0.477122474,0.533843748,-0.35301249,5.070273883,3.736556465,-1.968308755
7.408298954,9.050225553,6.407477579,24.03304939,12.82471498,3.724894023,12.62118014,9.747657573,18.10974346,12.29607348,18.05962945,6.466512742,10.81187249,0.975269353,2.772597592,-0.95865833,5.376681378,4.514635632,-1.363487454
9.221625747,6.106640361,3.577995734,25.37912362,14.53750819,4.604377116,13.94135289,13.33020254,20.19582782,15.83824007,16.41040346,4.735502635,10.39084021,0.478897152,5.273340155,-0.489543113,5.749426711,4.835688058,-1.128875831
9.860292173,1.268832504,-2.944139179,27.12374147,14.52862677,4.459431745,13.6268831,15.12723603,20.55973714,15.16822437,11.96370487,1.590514989,8.554994508,-1.134054076,5.933718895,0.486455549,5.152429094,4.367820752,-1.42845354
9.094065817,-3.385681089,-9.965766991,29.53417008,12.79883438,3.562383954,12.13234359,14.54690562,18.81329602,10.29447174,7.307037267,-1.324175233,6.535465183,-3.1453772,4.245004517,1.630157873,3.438046471,3.290555027,-1.902053802
7.359036303,-5.706281254,-13.49044318,29.52470555,10.14068781,2.715909381,10.39536155,12.34703276,15.5256057,4.04992234,4.878638175,-2.549307456,5.451333685,-4.429154474,1.609493365,2.782138135,1.603301896,2.20896529,-2.07190519
5.561322506,-4.901417509,-11.57604584,23.09938253,7.644870217,2.562662274,9.083800001,9.963533119,11.99667785,0.040460798,5.416850314,-1.689226921,5.515123329,-4.29267513,0.086422454,3.585150023,1.053029192,1.720196037,-1.807540543
4.610416243,-1.946496816,-5.822992705,9.351005818,6.105960528,3.033918132,8.165601824,8.451380483,9.628802315,0.081328087,7.676165947,0.29543707,5.936973991,-3.050147579,0.685700575,3.406000537,2.461704327,2.011744722,-1.412798401
4.93030297,1.303844483,-0.266508678,-7.445726695,5.707523027,3.403156654,7.101087278,7.824902005,9.210908344,3.076004311,9.582558602,1.67065949,5.607720689,-1.826006653,2.622149834,1.860797042,5.164012473,2.841754005,-1.285989255
6.214615218,3.525502825,1.519725269,-19.80914792,6.095839385,2.893531038,5.428996644,7.241305809,10.48727531,6.087281487,9.86046298,1.088741502,4.016579365,-1.704998058,4.057406065,-0.491858389,7.571493904,3.887893152,-1.51454826
7.573087865,4.705321584,-1.114074747,-21.92945075,6.679077391,1.328141485,3.228265501,5.827943169,12.26645847,6.634363472,8.826257354,-1.439799762,1.674668842,-2.892539782,3.611899161,-2.107718788,8.283724057,5.093229132,-1.810619775
8.017317762,5.728343831,-5.716478049,-13.74112015,6.922768703,-0.70339093,1.103770391,3.500389662,13.06886135,4.403191025,7.792667926,-4.470914365,-0.270435085,-4.551050197,1.379012515,-1.428607556,7.025661539,6.634754192,-1.843626459
7.042247711,7.239379275,-8.847934384,-0.944653146,6.532560539,-2.267869921,-0.222970847,1.167185842,12.00845265,1.17561185,7.718472162,-6.051582326,-0.881559562,-5.430416703,-1.296109105,1.732553262,4.718805474,8.516743026,-1.626637529
4.973076932,8.837944468,-8.699697285,9.097217355,5.540482782,-2.728782635,-0.336540068,0.188847985,9.41416037,-0.746433492,8.342238911,-5.015909081,-0.042187685,-4.777597203,-2.945848294,5.586643356,2.703353485,10.20277428,-1.553290633
2.837320784,9.330479376,-6.153976265,12.40541286,4.313237735,-2.098952187,0.745700241,1.482427794,6.769922356,-0.255045863,8.545559527,-1.734315722,1.620854291,-2.819670854,-3.022891482,7.30206724,1.772484888,10.7409633,-2.02052488
1.780237877,7.815302644,-3.616297225,10.53130401,3.433122715,-0.891930432,2.726486391,4.875927031,5.913043664,1.983400786,7.553048808,2.201745295,3.343314476,-0.503744779,-2.086310434,5.010414985,1.753814536,9.42208452,-2.984980899
2.343689911,4.64036322,-2.796531767,8.391015255,3.414696651,0.315321575,5.203926995,9.11662156,7.902884599,4.302348485,5.813464265,5.082132628,4.769323958,1.211991498,-1.166036026,-0.599314852,1.869556386,6.483209229,-3.888840632
4.073569233,1.374200566,-3.366761523,9.810492911,4.365310681,1.210343109,7.680512159,12.50758263,12.24995933,5.335881413,4.702223483,6.122799281,5.967399572,1.913060754,-0.972141295,-6.455911081,1.480986612,3.216310879,-4.061359474
5.765043107,-0.236529565,-3.527617805,14.43166919,5.839341109,1.746258937,9.492534265,13.78250708,17.04538174,4.798474596,5.275397219,5.711955197,6.984523965,1.749454894,-1.577607873,-9.118102904,0.582234984,1.253347401,-3.259708941
6.2470511,0.497241232,-1.825886944,18.25976723,7.078847504,1.933725815,9.91233446,12.72789829,19.98942069,3.332129658,7.204929254,4.78829888,7.45687878,1.051459814,-2.654226532,-7.218405977,-0.301923547,1.474059475,-1.873218374
5.206228235,2.751921502,1.442219368,17.09103647,7.547686169,1.704886816,8.525756076,10.23283612,19.71780381,1.823047777,8.908524825,3.960498675,6.739707711,-0.010008618,-3.859591851,-2.490290109,-0.636859936,3.355751384,-0.613649904
3.463377942,4.847901766,4.428915833,9.917530756,7.371437603,0.992391361,5.646767891,7.76093564,16.58538796,0.871585347,8.835445595,3.113952161,4.505116704,-1.403229739,-4.977041735,1.458468901,-0.332547641,5.308154613,0.025247906
2.457625534,5.468924152,5.265230821,-0.24352665,7.286536457,-0.101519483,2.353510727,6.533643413,12.38993103,0.725789152,6.812364251,1.767060321,1.262554325,-2.95905594,-5.795149517,1.752617547,0.228254626,5.795093799,0.061911199
3.257098121,4.501003028,3.538015669,-8.392690012,8.058269608,-1.282338765,-0.047320144,6.862318913,9.212302842,1.445154708,4.250772674,-0.223561209,-1.745270357,-4.219853852,-6.02176351,-1.699968343,0.552333888,4.423191541,-0.151515701
5.789352042,2.920525454,0.485889993,-10.6395386,9.788740527,-2.264711156,-0.835201477,8.00205733,8.140986953,2.909318296,2.991526119,-2.281708109,-3.296560509,-4.663766277,-5.441497991,-6.218160671,0.44525327,2.1852214,-0.354292697
8.861877211,1.940459251,-2.110798086,-6.152371875,11.69528019,-3.014968684,-0.355300173,8.632470838,8.718490278,4.620489824,3.767492333,-3.401285127,-3.027137876,-4.146982453,-4.176758535,-8.341674884,0.138407662,0.689346159,-0.602348897
10.97928322,2.153216801,-3.25224013,2.913367457,12.6075747,-3.768292709,0.271329245,7.709342812,9.440039306,5.645599919,5.625691631,-2.848478809,-1.65691947,-3.132541065,-2.716956598,-6.259135144,0.077985116,0.977836729,-1.070017809
11.36909206,3.298480447,-3.10563397,12.82894515,11.84282262,-4.75461003,0.044758885,5.174114184,8.908990596,5.024398215,6.820605625,-0.674658528,-0.395111146,-2.420017622,-1.584973399,-0.892596197,0.5881207,2.83000324,-1.653622841
10.46298523,4.701428341,-2.287570797,19.86329622,9.76575272,-5.870180195,-1.102623971,2.045862036,6.82259096,2.498923646,6.385079109,2.359193342,-0.001187561,-2.542497136,-0.918498045,5.004740731,1.670758869,5.036234954,-1.834158965
9.488404355,5.898907096,-0.925918167,21.41767672,7.554190934,-6.633442932,-2.261052668,-0.212666012,4.121301868,-1.037844701,4.964616423,5.312607251,-0.274992316,-3.337173764,-0.409892855,8.84968945,3.042506848,6.365581662,-1.026478404
9.501491994,6.912815849,1.472067921,16.82617639,6.326905546,-6.53511611,-2.345573624,-0.669232589,2.251522748,-3.908221897,4.141526799,7.551612431,-0.384742581,-4.088226157,0.258238859,9.734440392,4.313047347,6.440680286,0.848196967
10.61088134,8.017566039,5.186950427,7.88842156,6.324272739,-5.520484242,-1.110556721,0.427256577,2.111634007,-4.732271833,4.837224594,8.814816201,0.27758132,-4.15359256,0.866066704,8.441990838,5.147256201,5.86498618,3.109517371
11.97356892,9.297695654,9.363591028,-1.348291952,6.800490478,-4.17115334,0.483362384,1.80489651,3.438955396,-3.452902543,6.258821603,8.947050167,1.476100416,-3.546953098,0.592325891,6.284167976,5.337130728,5.578291936,4.699532755
12.52503481,10.42494513,12.06818781,-6.143826595,6.697888324,-3.36814133,0.91824502,2.06390916,5.042968445,-1.445882399,6.437862664,7.726387724,2.297984354,-2.957132926,-1.351075722,3.961621348,4.820242457,6.021398141,4.950715545
11.83209288,10.84135945,11.53615046,-3.661271898,5.522363767,-3.655795204,-0.6806912,0.687734963,5.676923914,-0.519118178,4.01365345,5.085350836,1.965733884,-3.160990951,-4.846484372,1.421706617,3.703942232,6.796063504,4.105436611
10.38501005,10.17428274,7.667568912,4.920249428,3.683844569,-4.807374891,-3.746504656,-1.568179873,4.909337543,-1.508409581,-0.254933564,1.554419952,0.579995395,-4.317895875,-8.563708246,-1.35263434,2.288376848,7.062341666,3.118871427
9.122329302,8.541149517,2.446698088,14.55880089,2.043727274,-5.957844811,-6.547977006,-3.210774726,3.393925434,-3.562289956,-3.655259559,-1.593300869,-0.872959833,-5.755194356,-10.64278077,-3.58274766,1.021892328,6.308100709,2.882710603
8.610737547,6.525407056,-1.245014039,19.19055992,1.107445943,-6.216703362,-7.374406464,-3.083031834,2.381500333,-4.718709504,-3.414327276,-2.858579067,-1.282955136,-6.448318776,-9.949543302,-3.87757612,0.349917686,4.843623576,3.521189619
8.570823827,4.867356703,-1.625708913,15.57340488,0.604031667,-5.28509086,-5.732239238,-1.183250639,2.836277037,-3.379209288,1.110287587,-1.472494794,-0.312680833,-5.8110181,-6.917179123,-1.355309546,0.51387465,3.61929156,4.36185147
8.138678112,4.090495436,0.707443697,5.398146287,-0.16420693,-3.608413283,-2.642776295,1.369928599,4.757459593,0.418960963,7.709939657,1.925617784,1.329096353,-4.147152742,-3.24098918,3.260390557,1.424830162,3.514654897,4.594961391
6.641488517,4.276538092,3.236871158,-5.949554403,-1.525254728,-1.987761243,0.15834734,3.170357646,7.132061033,4.880309017,12.7171802,5.526375504,2.469089071,-2.401313525,-0.616983506,7.659456105,2.705048655,4.660039735,4.024394751
4.247156131,5.078544714,3.399958106,-13.0437083,-2.943163973,-1.008365941,1.461471652,3.493541649,8.511016054,7.550379639,13.47795282,7.472903349,2.413242214,-1.431092577,0.468495114,9.310424074,3.880851026,6.318878603,3.231870082
1.956994634,5.940540843,0.475739322,-13.6752196,-3.330560292,-0.75124582,1.295042554,2.665324625,7.814725941,6.817734494,10.02888354,7.101747416,1.462194085,-1.405727555,0.910561801,7.257994338,4.613580196,7.428282033,3.009596938
0.943618469,6.423094645,-3.890626392,-9.337233606,-1.958603157,-0.961845323,0.614942331,1.601099722,4.876161725,2.776982128,4.778606282,5.36832167,0.585962565,-1.797412135,2.007274317,2.976219979,4.844650405,7.406450796,3.589296838
1.751741671,6.493855054,-6.826349656,-2.986883869,0.804561719,-1.436137204,0.321884841,0.957787572,0.445033297,-3.029373219,0.595498697,4.10988508,0.565547462,-1.911694313,4.208553646,-0.461174815,4.797968255,6.645939964,4.39470036
3.967710014,6.620324576,-6.116003218,3.584147948,3.5983979,-2.223149526,0.472570854,0.626461108,-4.271631437,-8.637633493,-1.103539244,4.695491696,1.349311068,-1.462415793,6.703148082,-0.369697516,4.861888362,6.339164247,4.575355342
6.57399689,7.550592273,-1.492432784,10.3374441,4.997573818,-3.463172503,0.327968869,-0.031311142,-8.206601434,-12.65960901,-0.838310371,7.092003763,2.161956298,-0.706669161,8.207373206,3.814270489,5.410320909,7.744597525,3.854872338
8.669924967,9.832344849,5.412094958,17.26768563,4.540295845,-5.060380562,-0.860306892,-1.4512669,-10.82951583,-14.66626778,-0.005038809,10.03712435,2.239656817,-0.080790478,8.236628114,10.2918424,6.622949492,11.37120662,2.905444594
9.988027706,13.33534166,12.17369173,22.51139556,3.02592719,-6.564070597,-3.047384363,-3.310741604,-12.1968189,-14.96129532,0.574049523,12.12399587,1.528598032,0.275670937,7.681973976,16.26413833,8.362904,16.59627311,2.852268936
10.84466984,17.12926422,16.83475978,22.73255088,1.836572862,-7.437056155,-5.286539108,-4.6643645,-12.74088935,-14.16550946,1.165864916,12.88994796,0.734383076,0.648486141,8.105886073,19.82950619,10.17491433,21.9362622,4.285505389
11.63665782,19.88771863,18.55181326,16.01394759,1.830000344,-7.505296559,-6.41387346,-4.685977091,-13.00238714,-12.98315652,2.380348672,13.03972275,0.688602765,1.417082294,10.31282917,21.00310233,11.44322376,25.77496158,6.626229818
12.3428066,20.61229479,17.50140402,4.723130636,2.688940105,-7.172834451,-5.950568835,-3.401408291,-13.46120342,-12.16315875,4.049026254,13.67242412,1.593764932,2.587555521,13.43791687,21.18170963,11.66805488,27.09085042,8.425456559
12.44956575,19.18331443,14.41986121,-4.782526011,3.22221793,-7.159518865,-4.476482286,-1.786358108,-14.48211569,-12.41208256,4.938295782,15.19875184,2.804452353,3.645420223,15.40551973,21.59457938,10.71907201,25.7727226,8.390195724
11.35404812,16.32227608,10.19453604,-6.302349691,2.335697903,-7.934567131,-3.185947823,-1.120612676,-16.28949491,-14.1095533,3.678961346,16.8615739,3.329308796,3.894688351,14.45463318,22.03662978,8.896864625,22.4170418,6.310399391
8.914374914,12.99161951,5.643068001,1.087563367,-0.123985599,-9.307545099,-3.01342366,-2.097439381,-18.89756603,-16.98793166,0.097051196,17.24718554,2.617424265,3.008927161,10.50293398,20.91332296,6.740480963,17.84494267,3.148631132
5.711197309,9.723475412,1.392541261,11.30087863,-3.295452484,-10.53334456,-4.038877408,-4.378162666,-22.01884649,-20.11019044,-4.321962445,15.3584338,0.963005156,1.323146704,5.23426944,16.57413174,4.706886914,12.72480308,0.270045024
2.813641765,6.448178474,-2.200998052,15.00007415,-5.982453585,-10.86716867,-5.600935962,-6.907124836,-25.05170549,-22.29951581,-7.380137247,11.3919856,-0.789262835,-0.385466363,0.856338018,8.898312528,2.965346059,7.542716119,-1.498450505
1.209833578,2.970281901,-5.016117228,6.527721189,-7.480596234,-10.12749766,-6.931533287,-8.688048849,-27.22689321,-22.78598817,-7.806452872,6.644432936,-1.94731507,-1.443882202,-1.425723964,-0.110442887,1.472968152,2.843907806,-2.20374235
1.288295217,-0.355566902,-6.953235419,-11.25423892,-7.897518751,-8.814838183,-7.718141655,-9.385147368,-27.88275715,-21.60684775,-6.202784538,2.688047412,-2.45894279,-1.704077154,-1.980074018,-7.229784036,0.261120411,-0.576272951,-2.313060705
2.695936219,-2.437719967,-7.695240235,-28.27008787,-7.801759479,-7.700780542,-8.13312109,-9.316085108,-26.73268082,-19.46346644,-4.459353422,0.494463109,-2.781762869,-1.512249932,-1.98604972,-9.830784308,-0.342659634,-1.820776336,-2.00837763
4.624411959,-2.06377025,-6.740817363,-34.07851,-7.604253935,-7.232899551,-8.395063422,-8.947360847,-23.97901605,-17.17252256,-4.109664768,0.12706615,-3.302393252,-1.298153406,-2.116748765,-7.354100818,0.188826226,-0.368765509,-0.958913298
6.299679107,1.083604848,-3.840398182,-25.24122598,-7.240904918,-7.235432849,-8.358856753,-8.405639036,-20.22499699,-15.16836199,-5.021355718,1.082057785,-3.874205644,-1.171785947,-1.884434356,-1.472360916,2.176648713,3.458175802,1.197080249
7.352671151,5.86072837,0.45745235,-7.650996351,-6.38474186,-7.122765467,-7.582938109,-7.443888916,-16.25738147,-13.43170217,-5.546128956,2.837063361,-3.924311322,-0.879882122,-0.225300116,5.091314599,5.328182875,8.459759394,4.149530449
7.870595611,10.13717566,4.714878685,7.869650881,-4.912411888,-6.418163585,-5.845146487,-5.841434406,-12.81941751,-11.81376689,-4.004183834,5.099523105,-3.0486322,-0.136355318,3.240463159,10.20160679,8.701058862,13.08949954,6.743893861
8.161059282,12.09050048,7.297277514,13.20185573,-3.137950961,-5.142294011,-3.61219806,-3.800890368,-10.44329062,-10.36890317,-0.233226018,7.633811813,-1.545032134,0.99385541,7.464124799,13.2858571,11.15347296,16.2517343,7.635277332
8.442814724,11.39593431,7.516240931,7.98034491,-1.574715807,-3.778155724,-1.948476029,-1.911508381,-9.335483749,-9.331886116,4.121292281,9.986238938,-0.353337152,2.019226492,10.49158564,15.09702648,12.00137644,17.80978835,6.294528666
8.697319487,9.397689475,6.352189418,-1.418442306,-0.445974053,-2.885415848,-1.82080858,-0.669941939,-9.2985099,-8.756841349,6.818964161,11.50722113,-0.377046662,2.339921375,10.88930017,16.62515827,11.40191607,18.43087727,3.508495922
8.775221246,8.111120133,6.026080027,-7.494061336,0.586642066,-2.707518942,-3.31856519,0.001482482,-9.737774012,-8.213740408,6.711331854,11.7367475,-1.723128944,1.70165875,8.890596552,18.08298023,10.16495905,18.89370862,0.893027164
8.652049162,8.810793779,8.52238307,-6.975698076,2.188231811,-3.076688141,-5.460390294,0.744327678,-9.849215293,-6.944265432,4.501685518,10.81058397,-3.519399235,0.411014469,6.27537996,18.72928243,9.133406546,19.41383615,-0.235482508
8.604525287,11.26070958,14.06317655,-1.835516999,4.764481693,-3.639537954,-6.831687573,2.18314722,-9.00742107,-4.473890221,2.005832331,9.463647367,-4.523562104,-0.862161276,5.038281089,17.5805112,8.612777756,19.53187901,0.270775847
9.12264707,14.09123794,20.71386434,4.055969838,7.997096802,-4.161514933,-6.617319577,4.23291905,-7.186791787,-1.209046326,0.630238224,8.545605487,-4.078771663,-1.53483553,5.900141992,14.36805391,8.283256461,18.63973076,1.469069622
10.56462995,15.89575541,25.52019499,8.965727528,10.89578222,-4.640882876,-5.225161733,5.929548947,-5.108026399,1.54766509,0.407521385,8.417525513,-2.647445615,-1.46399935,7.836808578,9.945488845,7.624763763,16.66567712,2.23591309
12.77535897,16.09896625,26.40159514,14.18081161,12.36024637,-5.167150236,-3.96941845,6.040699803,-3.889256088,2.322499564,0.367380185,8.744697251,-1.454967934,-0.951235466,8.959205582,5.819609141,6.46297722,14.27924203,2.198436634
14.96424641,14.96064881,23.40870429,21.17644996,11.85415163,-5.693102868,-4.009289962,4.064697989,-4.312167954,0.487688451,-0.200880766,8.885603728,-1.476750535,-0.430021393,8.002008571,3.178696102,5.159197967,12.37926118,1.894913275
15.99658911,12.91006902,18.42988893,28.17164364,9.717395438,-5.949740677,-5.347296468,0.840352022,-6.167885132,-3.178821878,-0.826529001,8.561168314,-2.54863606,-0.098592131,5.249942782,2.173013775,4.290852948,11.27742359,2.077793581
14.97108587,9.992597427,13.6424099,29.8784447,6.920237075,-5.587927294,-6.685261545,-1.783096825,-8.210647941,-6.860470846,-0.171218111,8.222477883,-3.326346933,0.22780406,2.253949799,1.984881509,4.121000207,10.32110331,2.837456412
11.73323112,6.022834594,9.967125458,21.34407993,4.457938656,-4.42760796,-6.298185563,-2.072540795,-8.882837615,-8.796316216,2.676140093,8.763673193,-2.190500532,0.958496991,0.670858206,1.598517291,4.341065728,8.383354501,3.373792015
6.987929904,1.267147002,6.716450237,2.856609906,2.802933851,-2.61369727,-3.304537074,0.436848494,-7.393879923,-8.359081751,7.105845984,10.77024652,1.530709555,2.395468513,1.176186821,0.641011356,4.327769854,4.902710467,2.650524593
1.935758337,-3.135824825,2.6007677,-18.52311708,1.745768214,-0.569109254,1.604808355,4.594876057,-4.384394615,-6.379227541,11.14765224,13.89829293,6.911828404,4.455312728,3.204043508,-0.370085245,3.694973258,0.605025393,0.364492622
-2.318775732,-5.649166442,-2.850205062,-32.74524642,0.670314463,1.201553589,6.518834293,8.355138907,-1.619654337,-4.525544809,12.85029325,16.90528636,11.84388415,6.608874958,5.52384333,-0.554112214,2.649665486,-2.80131882,-2.638266534
-5.198679409,-5.499336061,-8.668286403,-33.42140874,-0.959711285,2.313513261,9.475870429,10.04805633,-0.844896342,-4.219019492,11.75290095,18.35440315,14.24248826,8.061540886,7.047825484,0.46634013,1.823116503,-3.856959988,-4.90050636
-6.690397484,-3.553144331,-13.09794231,-22.3052604,-3.218359039,2.601651443,9.597145161,9.31091094,-2.599071472,-5.8413869,9.189608962,17.49555172,13.22920492,8.080518402,7.251243513,2.067896861,1.708881527,-2.588145756,-5.422960434
-7.066968393,-1.998438101,-14.89576147,-8.027632049,-5.655210641,2.112540176,7.400854379,7.061764132,-5.879226809,-8.717977332,7.134805418,14.69806597,9.515788645,6.326365118,6.074806234,2.925374759,2.197518416,-0.702234659,-4.381498365
-6.598119576,-2.852228779,-14.165156,0.088606329,-7.569160782,1.044859916,4.165936074,4.625984539,-8.940705632,-11.75953116,6.540252948,11.15805721,4.809664924,3.050772173,3.650056499,1.921528237,2.633403564,-0.446191993,-2.907847185
-5.485524923,-6.37312382,-12.09957256,-1.496517662,-8.4461776,-0.319222421,0.926323427,2.727507836,-10.64119284,-14.20700599,6.567102503,8.135226703,0.731567187,-0.937756316,0.224540976,-0.995769958,2.37542902,-2.904815876,-2.140221434
-3.992486821,-10.68750076,-9.985949778,-8.584463705,-8.295560367,-1.690525274,-2.10409158,1.097716041,-11.2815867,-15.94470605,5.377851577,6.274524427,-1.993866631,-4.56005901,-3.689101361,-4.65388163,1.396966375,-7.042392554,-2.347561386
-2.52266313,-13.06066909,-8.403107775,-13.08210284,-7.662831785,-2.860222541,-5.293198802,-1.066160381,-12.26146655,-17.25842484,1.841327713,5.435444472,-3.604273655,-6.907217975,-7.243864448,-7.34018625,0.399661826,-10.29793364,-2.833624367
-1.457122594,-11.9184537,-7.249693798,-9.533822753,-7.275061899,-3.76380742,-8.849013025,-4.220984309,-14.80206455,-18.35745115,-3.278515113,5.035143009,-4.739096951,-7.631918763,-9.526282734,-7.871646267,0.305300595,-10.36896335,-2.643190355
-0.841891972,-8.050668569,-6.38573664,0.625543256,-7.513940817,-4.466408246,-12.28506503,-7.900028439,-18.7616145,-19.11044498,-7.67549545,4.558002202,-5.793443877,-7.072864123,-10.05235456,-6.317240689,1.510747361,-6.876508008,-1.425717872
-0.251753355,-4.015176052,-6.093681917,10.11953688,-8.07093682,-5.058003138,-14.59802484,-10.89492592,-22.53721536,-19.20172105,-9.168228587,3.845827696,-6.692759674,-6.023741624,-9.082776704,-3.892116028,3.506384477,-1.657792965,0.276131797
0.922455037,-2.181267146,-6.803461595,11.16273741,-8.076638879,-5.529370503,-15.03559829,-12.05793495,-24.2019237,-18.53027006,-7.384786681,3.033919731,-7.177276379,-5.272152047,-7.44215468,-2.123506337,5.182859349,2.533279005,1.513061104
2.889707268,-2.957270001,-8.343187979,1.06231235,-6.696511696,-5.736724827,-13.80700507,-11.12087361,-23.02117364,-17.46844701,-4.146028391,2.295625962,-7.247014831,-5.187697777,-5.949681864,-1.879744459,5.605705399,3.926809489,1.725741754
5.053072219,-4.616896666,-9.571202474,-15.80707051,-3.822677627,-5.500556298,-12.09906097,-8.927783569,-20.14078777,-16.72052602,-2.244486595,1.66433257,-7.309777982,-5.607507142,-4.923601103,-2.915836337,4.665780164,2.81143131,1.160359969
6.224403585,-4.853250491,-8.999255823,-30.73441056,-0.344578745,-4.764281486,-11.30455887,-6.914290899,-17.84827559,-16.85470252,-3.533277753,1.070848928,-7.863002959,-6.060143457,-4.160561416,-4.199220502,3.113453329,1.030111013,0.585792293
5.435282451,-2.787404483,-6.09119338,-35.96945796,2.281949209,-3.671274056,-12.01039069,-6.197879867,-17.91774804,-17.85392763,-7.707011196,0.515044775,-8.970673249,-6.135873791,-3.35684432,-4.730452372,1.968298408,0.381595417,0.607450031
2.773782278,0.212516137,-2.146291911,-29.06511619,2.945878715,-2.478804065,-13.51500827,-6.891577173,-20.28154129,-19.0346066,-12.57025421,0.176990137,-10.00644536,-5.730382471,-2.53494247,-4.253478137,1.771493671,1.225456858,1.185248139
-0.461601118,1.57829835,0.183033227,-13.81451678,1.648340217,-1.371964546,-14.26564765,-8.07243907,-23.04165636,-19.42356979,-15.48094632,0.341995636,-9.945816748,-5.017330684,-2.051017462,-3.3677094,2.244268311,2.353690923,1.734969931
-2.537298353,-0.385245976,-1.356845038,2.284691618,-0.459237692,-0.339605957,-12.91840603,-8.386935795,-23.81737584,-18.35889086,-14.9000763,1.185791475,-8.050147909,-4.22949966,-2.181862858,-3.004415539,2.577372193,2.136023127,1.66530328
-2.492079497,-5.069923357,-6.81421338,12.14767773,-1.846274933,0.771123281,-9.261498488,-6.879493011,-21.41971008,-15.92048024,-11.07479805,2.591709749,-4.446726551,-3.461621337,-2.723087702,-3.682795363,2.090628687,-0.057441739,0.854526006
-0.862786031,-9.920076304,-13.60688796,12.42274414,-1.649981362,2.063211744,-4.354671438,-3.534250555,-16.62708416,-12.90619739,-5.620093297,4.157196959,-0.150554676,-2.65020413,-3.048297431,-5.099324394,0.749473603,-3.309300398,-0.318369562
0.68243755,-12.28083719,-17.96852005,4.508421049,-0.227553065,3.432149962,0.174587027,0.755174915,-11.55250157,-10.36633331,-0.495642606,5.411826636,3.523330726,-1.705969598,-2.641760801,-6.342471153,-0.822283528,-5.867162768,-1.346861568
0.580753683,-11.27038368,-17.34276253,-6.829085298,1.200191863,4.590503512,3.134908412,4.708505427,-8.153292637,-8.993558619,2.909335335,6.113469159,5.749204381,-0.642890691,-1.625913452,-6.561996951,-1.791812437,-6.471469249,-1.995276379
-1.448275912,-8.234617639,-12.03885956,-16.19427115,1.531591931,5.262005468,4.365176831,7.326354098,-7.014391985,-8.754359017,4.173179775,6.417838787,6.615812169,0.421853214,-0.741245101,-5.593743974,-1.663016343,-5.210563793,-2.379595083
-4.198881325,-5.514785313,-4.972989384,-20.14804672,0.622993823,5.37801676,4.572597951,8.321760119,-7.229227205,-8.988954767,3.745382741,6.777854557,6.892688313,1.373792642,-0.703748722,-4.081233392,-0.537696089,-3.274191244,-2.723044313
-5.904210354,-4.597312486,0.282390338,-18.392889,-0.66645447,5.10561336,4.647444453,8.118392853,-7.314748823,-8.903152001,2.587822691,7.596180896,7.33922658,2.176312364,-1.465707768,-3.010670366,1.028539285,-1.907865556,-3.076684896
-5.548283758,-5.139395117,1.716822112,-13.13629792,-1.231510595,4.690750475,5.027840513,7.48295543,-6.355775472,-8.12056556,1.729392479,8.836661636,8.097859674,2.815435823,-2.078234375,-3.008457802,2.396797163,-1.483294345,-3.286436684
-3.525503702,-5.569845438,-0.157027008,-7.247635255,-0.639880797,4.269698531,5.558247156,7.049915504,-4.523457778,-6.92244483,1.815926797,9.880364243,8.633212291,3.166339818,-1.38894486,-3.919772923,3.152712992,-1.415493103,-3.210925518
-1.16484653,-4.646245642,-3.103501496,-2.515940819,0.545132665,3.826162671,5.838299641,7.020114825,-2.707206142,-6.009192933,2.776944898,9.805680151,8.242893258,2.945562717,0.9310734,-4.967254314,3.185660112,-0.886129952,-2.936246098
0.417089332,-2.600383222,-4.930749151,0.837955492,1.289651353,3.323792594,5.679109965,7.177045414,-1.700023132,-5.946478303,3.822138061,8.000578271,6.713994132,1.860272167,3.902944786,-5.347481382,2.586027367,0.339100333,-2.744418398
1.131492891,-0.914605283,-4.850402847,3.251699232,1.000516775,2.863158442,5.26318003,7.156687845,-1.632386446,-6.692270169,3.901745063,4.733657952,4.586528305,-0.120259999,5.797469838,-4.798793962,1.522323483,1.723095968,-2.85081757
1.724906004,-0.964620535,-3.560311573,4.542398689,0.039813305,2.676138964,4.914980699,6.754457324,-2.032155384,-7.567875071,2.449101677,1.237291598,2.799729585,-2.597248543,5.384953197,-3.718868699,0.20630048,2.507184779,-3.171534929
2.809409954,-2.731199634,-2.263702357,3.632432829,-0.600174913,2.924812883,4.738794945,6.048639388,-2.337522973,-7.735219658,-0.094436372,-0.887044432,1.991452423,-4.867181169,2.904662231,-2.786740942,-1.083891721,2.429272293,-3.370807947
4.043315879,-4.725185371,-1.600243384,-0.260896678,-0.187297892,3.478283084,4.473139329,5.266620985,-2.37562812,-6.866065936,-2.444676446,-0.657222058,2.004219313,-6.306619953,-0.06402251,-2.445275379,-2.030893235,1.904682498,-3.176982993
4.262826163,-5.244706334,-1.353902625,-6.023758436,1.058614793,3.899197767,3.693552729,4.520321969,-2.443140562,-5.507008814,-3.332723604,1.555408589,1.997981004,-6.758921162,-1.794545089,-2.692886698,-2.41090815,1.478046265,-2.689537321
2.512421254,-3.94199245,-1.018269401,-10.42090649,2.08213826,3.708444521,2.179941508,3.646564584,-3.004164687,-4.81614158,-2.472566364,4.126947523,1.097407502,-6.6310843,-1.76220537,-3.335063452,-2.259412247,1.056519614,-2.382657581
-0.915125794,-2.362674388,-0.557002577,-10.1011613,1.852466812,2.744340449,0.128452937,2.315553541,-4.305057236,-5.78615975,-0.866904981,5.160652709,-0.919573687,-6.611587604,-1.07013882,-4.409057097,-1.920344097,-0.305455013,-2.765995287
-4.393344469,-2.904117003,-0.600091874,-4.626496585,0.269785348,1.32009211,-1.96573595,0.355403069,-6.196166271,-8.473927601,-0.130972463,3.727476837,-3.424076341,-7.203546525,-1.573208185,-6.307715438,-1.884869747,-3.733345101,-3.964005643
-6.013713385,-6.906998883,-1.882509554,2.105092369,-1.642425296,0.027169828,-3.644027838,-1.958878336,-8.230718988,-11.81557232,-1.296402875,0.478177138,-5.385679258,-8.404044836,-4.350312025,-9.383652477,-2.480570826,-9.415297043,-5.554793094
-4.973779015,-13.33956075,-4.430997751,3.923645255,-2.453562464,-0.67763506,-4.756067304,-3.919698791,-9.911103073,-14.23277217,-4.024775141,-2.864134169,-6.126274852,-9.741649964,-8.712471051,-13.32040299,-3.605806014,-15.9514634,-6.800742245
-2.168843307,-19.15455317,-7.240488337,-2.904032927,-1.411179252,-0.776378626,-5.461271464,-4.764528723,-10.91493134,-14.66478077,-6.876890469,-4.789292843,-5.800065263,-10.61094399,-12.54066748,-16.86992443,-4.706283695,-20.8153099,-7.092259761
0.517957133,-21.16772034,-8.78078353,-15.77593466,0.949957046,-0.644547232,-5.992733272,-4.184884955,-11.21289407,-13.30500016,-8.435813048,-5.083641632,-5.230420833,-10.6373209,-13.72615347,-18.35405688,-5.046818452,-21.74837402,-6.276849067
1.659397587,-18.15714395,-7.9937441,-26.22660604,3.154741656,-0.705131381,-6.403330677,-2.588373402,-11.05922299,-11.47400443,-8.36534384,-4.836144231,-5.225997171,-9.822398392,-11.63720644,-16.71505462,-4.134778595,-18.16563499,-4.667108325
1.285030132,-11.68862133,-5.041977574,-25.33845409,3.831475736,-1.078620084,-6.501086605,-0.87663718,-10.84578088,-10.65742935,-7.526291478,-5.326315897,-5.897016827,-8.424332958,-7.520173637,-12.36532391,-2.038677208,-11.5768603,-2.78493725
0.641913018,-5.082243545,-1.255732558,-10.62260005,2.668160908,-1.517097941,-6.003638116,0.146319718,-10.83250184,-11.36614867,-7.06848803,-6.692477457,-6.498059459,-6.733993929,-3.561123817,-7.114727696,0.602315659,-4.704891278,-1.073160485
0.967875309,-1.268259928,1.67615833,10.90591592,0.584611177,-1.657569618,-4.768307601,0.318886006,-10.86663583,-12.66329051,-7.304569811,-7.542077192,-5.936370635,-4.949662288,-1.342848696,-3.099948109,2.893951231,0.098584597,0.234778854
2.355867314,-1.047770243,2.689641975,26.45704907,-0.969432323,-1.356557489,-2.92430942,0.200938413,-10.31512336,-12.76829379,-7.379931032,-5.965913173,-3.595880558,-3.217701874,-0.856007436,-1.431116698,4.141782687,2.063896881,1.074778421
3.684969161,-2.924285279,1.842211599,25.9864127,-1.040214966,-0.812952689,-0.841675918,0.599385998,-8.393425632,-10.3706488,-6.074163666,-1.255063044,0.106332566,-1.734462493,-0.760064516,-1.557732014,4.177344581,2.076770506,1.464013689
3.654634518,-4.493750179,0.060728642,9.522182337,0.223920537,-0.38899525,1.004527208,1.881848094,-4.804735847,-5.725841262,-3.065510731,5.067791161,3.832556198,-0.753493548,0.377153936,-1.8537056,3.378337685,1.693774218,1.470545233
1.996522199,-4.267508293,-1.577915373,-12.3196051,1.771514886,-0.310226896,2.183739544,3.61221448,-0.268239638,-0.700073373,0.468879747,9.878796938,6.051278536,-0.448793622,2.85357511,-0.983100819,2.404815558,1.912797469,1.232449613
-0.214566187,-2.573660855,-2.469345265,-25.46295038,2.439089493,-0.519729854,2.435027994,4.823123643,3.56833153,2.349444977,2.531750485,10.45533843,5.917060993,-0.741730593,5.557280349,1.023531158,1.842844359,2.602658694,0.94605736
-1.439873297,-0.969670673,-2.600990484,-22.22491908,1.738182225,-0.802367515,1.773634638,4.754924953,4.983117198,2.126370769,1.800540442,6.419019928,3.75393104,-1.259147575,6.821950039,2.842691628,1.972666724,2.917389358,0.785506036
-0.987905173,-0.766597441,-2.198751471,-6.695138784,0.117872112,-1.037017506,0.554942676,3.507211079,3.346070908,-0.702290971,-1.257231941,0.117613013,0.859637995,-1.49812754,5.733781848,3.025299742,2.754057838,2.246542239,0.812350424
0.394425415,-1.908936118,-1.296707704,8.441857259,-1.400146623,-1.320812374,-0.588215545,2.07895195,-0.240625297,-3.909112036,-4.58915992,-4.928307924,-1.226898108,-1.108999056,2.889201,1.304866396,3.953849716,0.877790671,0.965123309
1.193051677,-3.098145402,0.353484083,11.41949214,-1.896700684,-1.842588751,-1.001781428,1.716929692,-3.429030571,-5.158615883,-5.972453517,-6.41044255,-1.546604811,-0.11049699,0.034049774,-1.044877283,5.264549675,-0.166817211,1.141536333
0.506340532,-3.003772759,2.937639266,0.253186513,-1.081930861,-2.633721977,-0.38932244,3.021651249,-4.060991,-3.512476614,-4.547865258,-4.688140601,-0.166893948,1.104648503,-1.150166285,-2.138119971,6.331667105,0.031310736,1.283429265
-1.059810824,-1.517332965,6.10232845,-15.61403565,0.610356159,-3.453224193,0.918263807,5.465306269,-1.61245961,0.036301153,-1.296466201,-2.261395734,1.955633285,1.972257461,-0.232891064,-0.976166651,6.745708361,1.470944215,1.366976998
-1.794610196,0.021039677,8.80700369,-22.14452688,2.335538938,-3.944587566,2.048521418,7.688135512,2.408172498,3.320426455,1.845143056,-1.739342436,3.562045501,2.038170991,1.648636925,1.682977243,6.122744108,3.109648682,1.31095683
-0.305261836,-0.157837949,9.741829199,-11.05399008,3.311884296,-3.941941185,2.067578438,8.369815813,5.461231566,4.456559849,3.444778032,-3.918857895,3.763464567,1.162658519,2.553201554,3.799448457,4.316239617,3.556865013,0.932364248
3.20085227,-2.801891993,8.100115257,13.80562104,3.181230096,-3.645869206,0.587885876,7.0551994,5.702155031,2.967702863,3.425233021,-7.427708806,2.432823318,-0.437522937,1.039084385,3.515767098,1.636077144,2.059516029,0.063153275
6.860524953,-6.946739058,4.166305269,38.54852462,2.104949893,-3.488138645,-1.917661804,4.365854575,3.19879374,-0.143980192,2.719883555,-10.08038058,0.148806108,-2.296682101,-2.877464352,0.472055548,-1.13976638,-0.968555311,-1.219950617
8.429018491,-10.57536392,-0.751092951,48.24755546,0.603143092,-3.778241303,-4.355220782,1.500816828,-0.226007518,-3.276003204,2.193154297,-10.72382401,-2.208246275,-3.885583987,-7.719077517,-4.028166294,-3.073064145,-4.264386323,-2.462574758
6.907887247,-12.12650902,-5.062130595,36.47946609,-0.74347012,-4.427405618,-5.672625273,-0.55224114,-2.36264144,-5.296754708,1.864161991,-10.03216962,-3.930110046,-4.797121817,-11.4475678,-8.067436794,-3.559543936,-6.617940512,-2.990970413
3.26031009,-11.6506804,-7.823393462,9.020556283,-1.572119259,-4.990762882,-5.490663647,-1.508748236,-2.141036532,-6.026609325,1.105771963,-9.672123979,-4.748856015,-4.875045555,-12.64143289,-10.48912413,-2.685478324,-7.659149639,-2.333024831
-0.323284632,-10.6858907,-9.190263618,-20.3508142,-1.868445111,-4.999473166,-4.260590207,-1.688519536,-0.204923733,-5.922430154,-0.455218063,-10.66355287,-4.790571283,-4.249924206,-11.21103747,-11.50677425,-1.170795273,-7.94807206,-0.618511175
-2.006840724,-10.95726521,-10.06599171,-38.57521133,-1.898789386,-4.30874212,-2.861548751,-1.524192353,1.783945199,-5.421488777,-2.269666363,-12.41101108,-4.31942688,-3.270261724,-8.28462327,-12.14670597,0.091495125,-8.353240709,1.375400273
-1.508979318,-12.95510838,-11.22966503,-40.54302652,-1.998202569,-3.181322436,-1.973558181,-1.157278336,2.449482881,-4.600506047,-3.138482615,-13.24830333,-3.496277532,-2.353533355,-5.452662537,-13.10046982,0.579515451,-9.262200235,2.632465536
-0.058058912,-15.53452869,-12.63835004,-30.4737138,-2.349795999,-2.060556438,-1.708708625,-0.461597156,1.567165776,-3.411734296,-2.237127634,-11.98931539,-2.326679892,-1.822128915,-3.907124722,-14.01229102,0.376167912,-10.27404065,2.508335169
0.746414859,-16.83392271,-13.46699516,-17.4302756,-2.895151581,-1.249418463,-1.739759932,0.585542731,-0.079774565,-2.155722229,0.044117109,-9.09023415,-0.801029342,-1.801094391,-3.963969076,-13.79848928,-0.058496768,-10.60010133,1.117025839
0.190768782,-15.73213671,-12.85013076,-8.748405697,-3.42506016,-0.770365972,-1.743650899,1.589515539,-1.550068126,-1.597321965,2.277999603,-6.369577397,0.929559682,-2.217908293,-5.121042498,-11.68704461,-0.353450978,-9.799659249,-0.777232912
-1.147728161,-12.65043032,-10.69665014,-5.938746331,-3.768998648,-0.493544283,-1.737548375,1.837629434,-2.47447206,-2.466989775,3.137491137,-5.50347451,2.518677,-2.881056514,-6.465538113,-8.05616623,-0.519619001,-8.19948216,-2.262659439
-2.05469606,-9.092095588,-7.865797405,-5.292096382,-3.928379045,-0.369690095,-2.023487948,0.790060895,-3.076396717,-4.717295507,2.534576361,-6.605699928,3.57619168,-3.575397525,-7.129492784,-4.338332487,-0.824835137,-6.622959128,-2.796092592
-1.748941451,-6.390695251,-5.521420284,-1.972848108,-4.046773908,-0.522148092,-2.836792818,-1.433189174,-3.613699233,-7.244120245,1.72003844,-8.156131767,3.879004312,-4.129918029,-6.604379946,-2.052543219,-1.394487947,-5.658383963,-2.385385806
-0.475144931,-4.78308592,-4.202811352,5.743112108,-4.248193037,-1.108544492,-4.065535946,-4.006700674,-3.901119774,-8.480850015,2.160372776,-8.381832641,3.453938852,-4.46288806,-4.894535597,-1.747247831,-1.949270437,-5.118198695,-1.392325517
0.787851691,-3.586993323,-3.443340624,15.0453768,-4.490678024,-2.100766373,-5.327490601,-5.894939684,-3.443950763,-7.540156439,4.092327969,-6.916856482,2.457176771,-4.630668921,-2.546874922,-2.691498505,-1.98411342,-4.211019673,-0.207701325
1.153941224,-2.247897953,-2.337262395,20.65930559,-4.576318737,-3.220621695,-6.336098822,-6.54688449,-2.075841822,-5.031327084,6.018849212,-5.283055455,0.965710781,-4.868637112,-0.533558758,-3.531570758,-1.281486359,-2.350572006,0.908461152
0.459600913,-1.22430266,-0.619473498,18.65369263,-4.328940534,-4.12046213,-7.191881423,-6.270630056,-0.457069143,-2.829579243,5.691833493,-5.712528815,-1.106001475,-5.556741184,0.076102123,-3.372610977,-0.296309335,0.053142116,1.751752137
-0.775487175,-1.816732416,0.709423197,9.231635004,-3.801885538,-4.653357569,-8.285071257,-6.003551411,0.137687618,-2.857144835,1.890540168,-9.253352614,-3.849868617,-7.048632784,-1.384189753,-2.457317621,0.009877842,1.538672759,2.049703775
-1.914930113,-5.009185275,-0.098989444,-3.340197998,-3.335810822,-4.973189464,-9.857991326,-6.650799255,-1.314717595,-5.73917281,-4.417980271,-14.74919304,-7.080253568,-9.405638471,-4.742109384,-1.976539025,-1.138780919,0.450941616,1.515294304
-2.740953449,-10.33461562,-4.125601303,-13.47119286,-3.390601189,-5.35074094,-11.62224512,-8.477040176,-4.740970325,-10.34757062,-10.52619479,-19.589281,-10.19007406,-12.20501886,-8.944523434,-3.212810147,-3.6290027,-3.846282665,0.093158959
-3.508992519,-15.84231663,-10.55675693,-17.70155033,-4.247301538,-5.860891235,-12.82288709,-10.96520491,-8.866178146,-14.58473204,-13.77388784,-21.65631473,-12.34253927,-14.61564978,-12.55823159,-6.652136968,-6.354032103,-10.29945317,-1.832396598
-4.552492273,-19.33342877,-16.73754849,-16.55014741,-5.782288432,-6.237276676,-12.76384855,-13.18176746,-11.98192048,-16.80157477,-13.33277966,-20.88938722,-12.92568639,-15.78392585,-14.57585267,-11.62623164,-7.887186046,-16.58050085,-3.526318277
-5.864948971,-19.91161138,-19.67725715,-13.62427043,-7.47673129,-6.060767331,-11.37973756,-14.32725125,-13.00868976,-16.76759483,-10.6281445,-19.18227855,-11.94799012,-15.33030161,-14.98874365,-16.62091116,-7.477416599,-20.3470984,-4.306640078
-7.059227577,-18.55762994,-18.01952006,-12.76267354,-8.671483304,-5.150008073,-9.352726724,-14.08180662,-12.04869517,-15.50625647,-8.101490792,-18.70743631,-10.05020623,-13.6167142,-14.6713369,-19.98236666,-5.602487174,-20.49318499,-3.983099712
-7.7170546,-17.21555305,-13.03134314,-15.29556052,-8.9212445,-3.820620997,-7.635031972,-12.59276354,-10.0697463,-14.24552478,-7.307840746,-20.05179907,-8.085403953,-11.55571307,-14.60195135,-20.62347258,-3.620834694,-17.56623432,-2.976607452
-7.771466477,-17.13594833,-7.825816046,-19.32908269,-8.243175582,-2.763802489,-6.750284859,-10.25448663,-8.075602524,-13.42711756,-7.829591827,-21.69781804,-6.566411027,-10.04906774,-14.98555379,-18.44534741,-2.764287401,-13.16391475,-2.004307774
-7.547504586,-17.87373935,-5.3354078,-21.43337913,-7.119254775,-2.604601074,-6.45825964,-7.534891827,-6.483967992,-12.59428725,-7.807689774,-21.26995749,-5.405211563,-9.434448931,-14.99182564,-14.35789347,-3.245175765,-8.851516782,-1.569399959
-7.420198046,-17.7961449,-6.482207614,-19.34438416,-6.247946598,-3.472441669,-6.070543249,-4.950519354,-5.160844677,-11.16142528,-5.607720051,-17.52476196,-4.146179677,-9.339480872,-13.39402136,-9.89689994,-4.167378198,-5.400955267,-1.654604337
-7.415033332,-15.65954052,-9.81639209,-13.59540102,-6.17147438,-4.916037127,-5.139503826,-3.069300451,-3.930710265,-9.278517305,-1.276086017,-11.47522053,-2.48961561,-9.048822761,-9.676539532,-6.539713098,-4.288297106,-2.783583178,-1.839648169
-7.137698999,-11.87611621,-12.76406117,-6.905050028,-6.971397844,-6.220750883,-3.902547918,-2.367612504,-2.976464625,-7.932445374,3.348350097,-5.762641613,-0.649779745,-8.097591287,-4.740599914,-4.980927868,-3.002035532,-0.704521161,-1.703122299
-6.12343608,-8.338918858,-13.44742386,-1.957700019,-8.201719323,-6.872269571,-3.064618898,-2.946483794,-2.711738045,-8.137580523,5.930669577,-2.796626299,0.780323041,-6.627953521,-0.573469176,-4.764081098,-0.760245644,0.908948702,-1.145497348
-4.311031502,-6.915752856,-11.73045609,0.519808896,-9.118867325,-6.818128935,-3.090943593,-4.339885924,-3.265255833,-9.930083988,5.338418323,-3.122001616,1.363612145,-5.23815234,0.975555367,-4.580852836,1.363948347,1.882822226,-0.37524386
-2.217912433,-7.892664381,-8.882966887,1.795449342,-9.107468605,-6.371835804,-3.649425206,-5.673686709,-4.126602056,-12.11731046,2.4755264,-5.219951164,1.29162838,-4.466472445,-0.553828693,-3.164584152,2.551373313,2.147080347,0.372841415
-0.637092491,-9.721701714,-6.374934063,3.34911375,-8.065398811,-5.901351092,-3.758538964,-6.181419005,-4.377421377,-13.10839288,-0.327291354,-6.781666261,1.344809188,-4.348653883,-3.895421664,-0.233621385,2.79952282,2.011259604,1.074876262
-0.083252841,-10.32056321,-4.883665716,4.952065151,-6.495783609,-5.587018943,-2.600128761,-5.747936751,-3.386127963,-12.19166446,-0.884495354,-6.389671223,2.299182199,-4.417822536,-6.904879342,3.214260279,2.733372119,2.016290782,1.86271924
-0.434333906,-8.830222374,-4.218830555,4.468549306,-5.206772857,-5.4188151,-0.343955679,-5.043387248,-1.383721261,-10.17527536,1.42853732,-4.355077512,4.223341202,-4.136779488,-7.967280229,5.557307628,2.897352124,2.460491771,2.734879772
-1.06002283,-6.326885058,-3.971537519,-0.239616117,-4.779149236,-5.35903206,1.755730744,-5.071217407,0.60510116,-8.793865093,5.342500329,-2.235425014,6.259479808,-3.382997122,-6.924404589,5.729011404,3.203104253,3.05491016,3.347290287
-1.331098915,-4.874951088,-4.103543279,-8.843662587,-5.1567447,-5.457340012,2.177327451,-6.410502159,1.465525236,-9.319324395,8.575026612,-1.581934026,7.142052416,-2.562278571,-4.888664145,4.017816179,3.040656994,3.085775794,3.152073904
-1.09619911,-5.735671428,-4.894864604,-17.74475283,-5.676240341,-5.788996862,0.288108675,-8.714678434,0.778546211,-11.51289522,9.267923001,-2.917592927,6.124301756,-2.248297078,-3.20113358,1.817426605,1.944836195,2.009629275,1.834228501
-0.746815526,-8.273464705,-6.395013239,-21.94796283,-5.561439972,-6.295168055,-3.066940234,-10.87804199,-0.932455407,-13.79893152,7.052523039,-5.577913188,3.620975852,-2.658839136,-2.434281707,0.4923235,0.195264856,-0.008594032,-0.308016802
-0.832728812,-10.49323819,-8.043602766,-18.43005947,-4.549297368,-6.723808561,-6.051699463,-11.78541865,-2.656371049,-14.52333334,3.149703435,-8.295766507,1.043220022,-3.429461744,-2.218633926,0.291391494,-1.226997846,-2.094395684,-2.397248182
-1.554905936,-10.72615844,-8.943178502,-8.473700806,-3.170761179,-6.779309695,-7.078134911,-11.10151309,-3.634554562,-13.24431749,-0.453932181,-9.944469654,-0.108082329,-3.898300575,-1.917601023,0.255269005,-1.339548484,-3.236184722,-3.46385393
-2.556449704,-8.993819455,-8.578183198,2.88497201,-2.429781126,-6.375170234,-5.877451254,-9.50726319,-3.778635137,-10.98158154,-2.195090912,-9.963760954,0.739930156,-3.678604723,-1.447925616,-0.763798758,0.056868603,-2.977663655,-3.049154356
-3.185985675,-6.883194291,-7.271812678,9.963923457,-3.077847327,-5.756641846,-3.604498974,-8.204161989,-3.496110311,-9.250631562,-1.788751742,-8.421286062,2.833229616,-3.039962005,-1.465412924,-2.850717607,2.174301887,-1.674601468,-1.480231555
-3.025700378,-6.085987507,-5.87644881,9.850524327,-5.02411276,-5.352870489,-1.92476808,-8.063895972,-3.191512748,-8.757787206,-0.293231495,-5.929115394,4.595235912,-2.764525548,-2.751696771,-4.709984051,3.79642406,-0.139460373,0.374318144
-2.262705999,-6.92777386,-4.938007239,3.770096288,-7.357360501,-5.456501149,-1.808295817,-9.061138586,-2.955804545,-8.913705595,0.613439877,-3.533538678,4.667927431,-3.570869742,-5.384468104,-4.69032632,4.145658609,0.98093938,1.660245733
-1.600821911,-8.198227485,-4.144719433,-4.246122812,-8.998136137,-5.995761009,-2.94399832,-10.39022486,-2.706232238,-8.583667911,-0.29291704,-2.456465965,2.758081647,-5.549587634,-8.480022088,-2.352929676,3.362097779,1.550669786,1.987646764
-1.76197863,-8.407743354,-2.67364362,-10.03843914,-9.490961056,-6.599364762,-4.161057141,-11.12935986,-2.555960639,-7.371878242,-3.003735269,-3.561064075,-0.264209044,-8.042934408,-10.77997743,0.817654985,2.24913155,1.764490129,1.493508562
-2.939028677,-7.295762445,-0.202325614,-11.31923724,-9.304696624,-6.906199825,-4.445931664,-10.91098798,-2.94979373,-6.225831195,-6.28699671,-6.727036009,-3.007228912,-10.0454003,-11.58165757,2.350073079,1.565690914,1.703881876,0.572532532
-4.601019322,-6.170491838,2.371250351,-8.010881891,-9.378157889,-6.857475035,-3.716529999,-10.0964167,-4.335764524,-6.720845914,-8.509234782,-10.62668132,-4.427099204,-10.80501713,-11.18609308,0.765373893,1.496134182,1.136983062,-0.431803037
-5.796276641,-6.705971001,3.329009804,-1.513323846,-10.25593394,-6.721355175,-2.773960417,-9.380901633,-6.630854064,-9.569871585,-8.752204146,-13.28132324,-4.324587261,-10.18733198,-10.46379205,-3.012476324,1.715341246,-0.184827569,-1.333616187
-5.74376414,-9.24207759,1.516593608,5.911617979,-11.51677517,-6.83163668,-2.547602725,-9.207120231,-9.008993824,-13.66572988,-7.449911149,-13.20936484,-3.215951836,-8.596691624,-9.941585384,-6.111434855,1.902748262,-2.00520313,-2.014840369
-4.308085776,-12.15275691,-2.409790582,11.26380337,-11.99418115,-7.2702718,-3.298805832,-9.47627224,-10.30926295,-16.60129829,-6.042417119,-10.40275321,-1.799627945,-6.610573003,-9.266352467,-5.847672083,2.161172486,-3.382269858,-2.336206585
-2.049786197,-12.96918785,-6.066723156,11.2210244,-10.66503634,-7.771079413,-4.426060545,-9.751449163,-9.814560624,-16.38722969,-5.831272918,-6.35221925,-0.47835972,-4.664079827,-7.576129662,-1.904350618,2.916452601,-3.171672967,-2.201615781
0.152596697,-10.40511513,-6.929304968,3.693967693,-7.530788423,-7.929065867,-4.982456567,-9.719261063,-7.778967054,-13.02357305,-6.862747431,-3.013099257,0.741957115,-2.997330942,-4.476857914,3.255995108,4.388913921,-0.894494332,-1.71570544
