Channel 1 - P4,Channel 2 - O2,Channel 3 - P8,Channel 4 - T8,Channel 5 - C4,Channel 6 - Cz,Channel 7 - Fz,Channel 8 - F4,Channel 9 - Fp2,Channel 10 - F8,Channel 11 - Fp1,Channel 12 - F7,Channel 13 - F3,Channel 14 - C3,Channel 15 - T7,Channel 16 - P7,Channel 17 - P3,Channel 18 - O1,Channel 19 - Pz
7.734374158,12.3108325,24.23904038,16.51445524,15.21578187,8.298058173,7.319835223,18.9760027,6.645643052,18.79057445,-15.34606681,0.49833399,4.357118572,7.473059171,11.43504486,19.01740303,2.041891311,3.688270706,12.53136752
-0.558226444,7.698831446,13.29321507,15.25096344,1.344105635,0.612464794,-2.142684095,4.460511515,-3.176570231,1.921127089,-17.87585851,4.578748472,-1.396762145,0.977240721,5.049676113,10.09122097,1.555963761,3.698221345,5.372031395
-7.199195292,2.917198366,3.201438276,17.61917458,-9.644790617,-7.184016651,-9.654509585,-6.546686035,-8.140503069,-7.420656737,-16.37427648,4.694196086,-7.022429673,-7.311035792,-1.281368467,-2.462007703,-2.749011767,0.306965511,-2.1166562
-9.043082423,0.191183457,-1.343351235,17.79926779,-12.63418208,-9.823896516,-10.72380225,-9.170440967,-7.162400993,-8.455925131,-10.10687396,4.688387241,-7.995116547,-11.59975044,-2.855995621,-10.49652841,-6.310353388,-2.367241865,-5.681661672
-6.16208463,-0.207905457,0.036029424,10.74983894,-8.01589614,-6.240905264,-5.603517089,-4.170944389,-3.157293576,-5.099184846,-2.533075287,6.392479172,-3.912697831,-9.482474834,0.582130958,-10.14508314,-5.749593741,-1.186090356,-4.402317959
-1.792552567,0.260256857,3.555530536,-3.056629609,-1.084573184,0.108467614,1.144217509,2.789846345,-0.647214249,-2.864950029,1.693322004,8.918062139,1.752776741,-3.33493802,5.234831639,-3.783433621,-1.356044213,3.54172184,-0.770914064
0.109500943,-0.132959613,4.448696919,-17.50181344,2.089074808,4.256893626,4.176439255,5.372484737,-2.31414194,-4.977600887,0.413835681,10.13564684,4.715443437,1.907257518,6.642815326,2.471782115,3.436333872,8.414521306,1.650268762
-2.213108031,-1.984042203,0.60687618,-25.44778823,-0.944491445,3.522173644,1.244136201,1.063824063,-7.192072395,-10.47861245,-4.590495109,8.808600502,3.153110862,2.614882272,3.213014321,3.483411352,4.960102659,9.68617305,0.995025855
-7.181573166,-4.500361054,-6.09915913,-24.38215805,-7.64120422,-0.843007497,-5.455065956,-7.363654531,-11.8192574,-15.53826135,-9.342466647,5.612083485,-1.297661358,-1.085200746,-2.831480736,-1.534955551,2.184679087,6.15292115,-1.82545916
-11.31541986,-6.406939603,-11.63576079,-18.42014013,-12.9076244,-5.156932441,-11.25981665,-14.33162599,-13.26227475,-16.74728803,-10.95215989,2.408316543,-5.311529773,-5.974563003,-7.542654422,-9.15695951,-2.682045471,-0.043950872,-4.31306042
-11.98553686,-7.080406074,-13.09353169,-14.85343092,-13.18782409,-6.440398316,-12.62792823,-15.76561019,-11.45771348,-13.77115258,-9.700371862,0.627122333,-6.689397326,-8.651625865,-8.433325749,-14.74723769,-6.14993967,-5.160984515,-4.611192606
-9.277158366,-6.91403346,-10.7674186,-17.87812277,-8.94136196,-4.545458049,-9.523636353,-11.89215351,-8.982308664,-9.418489282,-8.353941914,0.215630256,-5.8655028,-8.158315731,-6.154627147,-15.737698,-6.218868705,-6.615326061,-2.880987469
-5.60772187,-6.720955903,-7.535061206,-24.62770545,-3.793551896,-1.744535258,-4.957809378,-6.575020372,-8.570714092,-7.288723405,-9.489851365,-0.022226439,-5.057817521,-6.295157036,-3.528652873,-12.83230968,-3.724072261,-4.608430298,-0.85289658
-3.623806243,-6.871468293,-6.316549875,-27.05014423,-1.384588898,-0.449792715,-2.335379221,-4.022465407,-10.58850195,-9.006318744,-13.1623555,-1.128227496,-6.035903645,-5.660638606,-3.022819556,-8.738590935,-1.33244555,-1.551584006,-0.17712396
-4.219585043,-7.034453505,-7.849717881,-18.55320679,-2.633123163,-1.164844719,-2.859492477,-5.616247912,-12.6617472,-13.20531865,-16.81825,-2.945226513,-8.518829855,-7.283796794,-4.871678426,-5.91338249,-1.215477862,-0.030874318,-1.099809532
-6.235545765,-6.738085394,-10.52036685,-0.273436766,-5.506131216,-2.33435827,-4.954209514,-9.248304372,-11.79281201,-16.88738459,-17.42731439,-4.236621448,-10.50525555,-9.853036331,-7.267144449,-5.196616809,-3.384253289,-1.047285948,-2.527567975
-7.856146651,-6.128140947,-12.11134913,18.32873733,-7.153372836,-1.990773942,-5.895897273,-11.37863116,-7.150464663,-17.86965839,-14.00583466,-3.830387107,-10.10915053,-11.02340805,-8.179997469,-6.056072358,-5.94915205,-3.771275158,-3.235563347
-8.30317592,-6.083215056,-11.75456112,25.65808783,-6.372088606,0.404769101,-4.116600095,-9.908295119,-1.121726063,-16.30104735,-8.493671656,-1.76967919,-7.240883519,-9.510349024,-7.084605058,-7.694801821,-6.889889581,-6.656290383,-3.013160026
-8.311433297,-7.460571012,-10.39449409,16.61877408,-4.328542971,3.534119842,-0.310001612,-5.554179332,2.344577935,-14.15584807,-4.361062615,0.532511457,-3.720408931,-6.142619445,-5.153397801,-9.765677498,-5.738486683,-8.72262102,-2.721107196
-9.083089348,-10.12572205,-9.55185515,-3.015920446,-3.142108743,5.451240364,3.35710736,-0.867397353,0.804119325,-13.33650849,-4.124506189,1.286343466,-1.816337731,-3.085395514,-3.961710109,-12.15141735,-3.811037368,-9.950249294,-3.304511295
-10.81838765,-12.72670591,-9.71542136,-20.32812268,-3.787571105,5.263523103,5.047703436,1.995876038,-4.697414209,-14.07882505,-7.691466256,-0.328597552,-2.509189242,-2.04606664,-4.026561069,-14.34739147,-2.951414864,-10.71851611,-4.758773281
-12.27038272,-13.57611698,-9.924714292,-24.70463129,-5.225393029,3.770164569,4.516195142,2.795189381,-10.3383725,-14.94149292,-12.65211718,-3.525300293,-4.900069686,-3.043185737,-4.504805672,-15.35594026,-3.973891564,-11.09648421,-6.040830943
-11.79533881,-11.99684395,-8.895360705,-15.89508966,-5.453306335,2.58839326,2.933537542,2.898035073,-12.35849067,-14.23123784,-16.07540237,-6.45220026,-7.12194749,-4.681554698,-4.20424624,-14.37515518,-6.109654008,-10.76080202,-6.008742667
-8.969648383,-8.978314252,-6.543129067,-4.214101484,-3.442634485,2.65170776,1.673184774,3.676582107,-9.751980832,-11.52744398,-16.33909526,-7.464913006,-7.849597675,-5.506466449,-2.843369911,-11.63670215,-7.787715942,-9.539489767,-4.513781224
-5.277089751,-6.487298349,-4.366082036,-2.31717712,-0.19331868,3.447179126,1.238026373,5.161110965,-4.736233127,-7.999218732,-13.74747085,-6.162951357,-7.119428685,-5.149107801,-1.327232513,-8.475022725,-7.941388349,-7.88296022,-2.626727046
-3.143960585,-5.908661066,-4.207829455,-14.70522059,2.021035239,3.61359127,1.193875383,6.10328748,-0.774280361,-5.342384321,-9.805828032,-3.489163678,-5.903751836,-4.318420234,-0.788113357,-6.388781558,-6.702714767,-6.640701925,-1.764148128
-4.039228497,-6.891937794,-6.472462296,-33.29194176,1.544650013,2.282683201,0.965483483,5.260336665,0.11845721,-4.366922087,-6.017999378,-0.947025517,-5.007089634,-3.830506155,-1.33209622,-5.844540596,-5.018386453,-6.273806563,-2.473024556
-7.208606834,-7.620249203,-9.466800413,-42.97205352,-1.265988166,-0.073563049,0.597546245,2.651576129,-1.395729935,-4.502069573,-3.193732788,0.388827409,-4.365751321,-3.718853764,-1.737213219,-5.912455739,-3.704703514,-6.289823791,-3.945603345
-10.13430052,-6.360482314,-10.61804384,-33.32268062,-4.312687272,-2.024921263,0.718953523,-0.35689703,-3.039265809,-4.603441813,-1.572203281,0.361190757,-3.346515605,-3.293026419,-0.490333709,-5.145391954,-2.866801317,-5.564604065,-4.700806616
-10.40681114,-3.049680495,-8.643313687,-7.452341163,-5.43141273,-2.414531834,1.771304456,-2.192927363,-3.162010036,-4.262014625,-1.305042564,-0.497081999,-1.666187275,-2.038866762,2.694820403,-2.997229534,-2.141365277,-3.388472116,-3.853066717
-7.543875516,0.428069272,-4.814375476,19.17669138,-4.068825944,-1.340118126,3.280945025,-2.422938403,-2.160362022,-4.37503341,-2.658362012,-1.563410345,0.008384306,-0.42150863,6.246339168,-0.534133602,-1.389361206,-0.316718971,-1.884079431
-3.343288509,1.587104544,-2.1332295,29.52417106,-1.624755604,-0.05750698,3.924654231,-2.134770098,-1.915281305,-6.410502413,-5.735855446,-2.568227097,0.394256717,0.26577517,7.662334417,0.255293237,-1.06144311,2.030553607,-0.265766999
-0.539296729,-0.717507297,-2.982731583,17.36466456,-0.273745541,0.057792956,2.422031889,-3.042881145,-3.872727813,-10.97252328,-10.07920013,-3.603582736,-1.400380093,-1.03919046,5.357875222,-1.948970254,-1.83008081,2.180356872,-0.262369702
-0.85041575,-5.309051556,-7.152162328,-8.169876624,-1.290741506,-1.421758766,-1.453396959,-6.068676104,-7.547655433,-16.92292075,-14.62940444,-4.826384509,-5.073651433,-4.125949424,-0.019193497,-6.607766583,-3.83856091,0.049794541,-1.917632277
-3.901454223,-9.490480562,-11.89448284,-29.43950196,-4.198707017,-3.735363776,-6.567199083,-10.53815155,-10.80209846,-21.87657843,-18.16432989,-6.188166726,-9.231514938,-7.456551721,-5.86971469,-11.53899973,-6.325657196,-2.877375484,-4.046880996
-7.72255803,-11.02484081,-14.02138884,-33.29242531,-7.283536864,-5.612501475,-11.06149118,-14.58580229,-11.65459788,-23.74559183,-19.87068464,-7.408697531,-12.30811344,-9.225605555,-9.335812798,-14.39942501,-8.059985083,-4.669834611,-5.194957457
-10.28021446,-9.740563783,-12.36061931,-20.23845389,-8.914908413,-6.210542999,-13.4288859,-16.38739779,-10.02887441,-22.13610453,-19.61255259,-8.15133808,-13.54057515,-8.687798828,-9.13516114,-14.26585583,-8.265620748,-4.469727352,-4.738811194
-10.79881194,-7.508221035,-8.600039781,-2.934582842,-8.58805355,-5.548891653,-13.2348705,-15.27213517,-7.902321162,-18.52771898,-17.78119898,-8.210390087,-13.24171515,-6.659366124,-6.216195042,-12.10314033,-7.24094611,-3.135494719,-3.253078265
-9.966924072,-6.643287547,-5.8736875,4.419225635,-6.993188744,-4.226701885,-11.07304058,-11.98176507,-7.69840529,-15.15843232,-14.99560151,-7.582633607,-12.25942392,-4.795742587,-2.879138808,-9.844516154,-6.1120549,-2.44550273,-1.920661473
-9.096757352,-8.039173683,-6.285922038,-2.878071455,-5.275411654,-2.844893728,-7.978872899,-8.064785674,-10.2743998,-13.54783526,-11.97795662,-6.448424526,-11.19440459,-4.271542978,-1.159468881,-8.912998297,-5.909283676,-3.52624044,-1.556243027
-9.066205148,-10.51848089,-9.388504752,-17.23316989,-4.211200539,-1.699351033,-4.870493104,-4.979789195,-14.1997876,-13.78800859,-9.621824916,-5.150510379,-10.07593774,-4.95752955,-1.695121023,-9.364299913,-6.742288835,-5.841385691,-2.060335695
-9.857926749,-11.87917016,-12.77027238,-25.99213241,-3.905751986,-0.913541159,-2.389168311,-3.517675412,-16.92790553,-15.002483,-8.954966035,-4.179443668,-8.701501241,-5.723649469,-3.749138078,-10.20083174,-7.757681153,-7.607103071,-2.678061056
-10.86725145,-10.74580648,-14.14802424,-22.34931896,-4.050041707,-0.692541832,-1.040866913,-3.744816792,-16.87967244,-16.38654702,-10.74484659,-4.072719823,-7.213888582,-5.531755932,-6.092573081,-10.40052924,-7.884839508,-7.283477238,-2.736686367
-11.51668021,-7.720322272,-13.15831925,-10.83174684,-4.333049364,-1.299005214,-1.269724258,-5.257880411,-14.71868694,-17.84392956,-14.89992884,-5.161388738,-6.292426949,-4.355108851,-7.890088743,-9.697996931,-6.714740113,-4.878092315,-2.188946806
-11.60762065,-4.932037746,-11.40523714,-3.027431418,-4.628181248,-2.7242833,-3.257202344,-7.454656635,-12.7947597,-19.72161356,-20.18339133,-7.263136145,-6.724287763,-3.17889325,-8.952666395,-8.522795732,-4.782716471,-1.968627547,-1.545866851
-11.23680447,-4.386902303,-10.85539803,-7.431438803,-4.922844966,-4.437545271,-6.62862652,-9.71721079,-13.24831658,-22.0322165,-24.65960627,-9.567100445,-8.717639895,-3.155105682,-9.404338338,-7.330143577,-3.074058165,-0.448665249,-1.355036866
-10.54650493,-6.44733381,-12.05040489,-22.07984415,-5.224194718,-5.592304578,-10.44098136,-11.57898783,-16.32854825,-24.02922055,-26.73236773,-10.90632218,-11.57556034,-4.67238539,-9.290149248,-6.075305188,-2.233999362,-1.070563601,-1.741494528
-9.646934858,-9.612106526,-13.67696255,-36.11619004,-5.604728124,-5.628018854,-13.60897308,-12.9065631,-20.23954698,-24.64562153,-26.07349173,-10.35575066,-14.04930035,-7.092651666,-8.546259626,-4.351568731,-2.162360963,-2.987496721,-2.392854406
-8.749399435,-11.6925272,-13.79649505,-38.82384017,-6.287186292,-4.757593724,-15.50174778,-13.96405903,-22.55157171,-23.4573638,-23.71797236,-7.815857489,-15.11418151,-9.277316271,-7.260899565,-2.006034271,-2.270445504,-4.600306283,-2.918575688
-8.247409214,-11.39600374,-11.59758987,-28.41117652,-7.54826538,-3.849017328,-16.23049479,-15.19974099,-21.99111013,-21.2719534,-21.21652358,-4.182613809,-14.56929388,-10.37318465,-5.813738163,0.442907104,-2.074094793,-4.896511601,-3.186207905
-8.514234721,-9.089460391,-8.130405677,-13.17662547,-9.407742581,-3.725531498,-16.37861968,-16.81051594,-19.23085043,-19.70025739,-19.5075639,-0.942682777,-13.03128564,-10.20786497,-4.628972066,2.079490619,-1.543599262,-4.101822593,-3.317865456
-9.516037964,-6.254715562,-5.417171463,-4.231915293,-11.37143574,-4.463138985,-16.41150975,-18.41475226,-16.20782255,-19.94786487,-18.42607588,0.591525657,-11.39611664,-9.091312807,-3.740723402,2.375207058,-0.928619727,-3.141820961,-3.401541438
-10.61540988,-4.209194624,-4.755301378,-6.120905736,-12.56338828,-5.322037608,-16.29706978,-19.18525674,-14.676016,-21.7983334,-17.23971606,-0.047090367,-10.2362037,-7.367400139,-2.653177887,1.775444718,-0.311645743,-2.505489176,-3.258144006
-10.84991406,-3.180228198,-5.699345423,-13.37290849,-12.28012849,-5.413538995,-15.68347966,-18.45585442,-15.17669356,-23.68723984,-15.70646649,-2.290868139,-9.575174216,-5.203851903,-0.759939354,1.495835019,0.598622384,-1.633058975,-2.537328811
-9.564092929,-2.422410114,-6.572589234,-15.87329032,-10.57654705,-4.536147651,-14.46437361,-16.37016016,-17.08547844,-23.90082901,-14.65529432,-4.907379781,-9.114689856,-2.769923499,1.957570734,2.606583174,2.177634274,0.547414005,-1.075194421
-6.923923216,-1.150055032,-6.007275809,-8.341052027,-8.364747703,-3.426004304,-13.17723279,-14.00406427,-19.42867242,-21.98309945,-15.46753853,-6.681146234,-8.629281907,-0.50789479,4.584398649,5.117599805,4.357001305,4.386046709,0.827883717
-3.890130783,0.594733542,-4.134171904,4.355458598,-6.852482057,-3.158040746,-12.79227873,-12.75163759,-21.61557167,-19.20688779,-18.80635985,-7.023547957,-8.18629975,0.895764945,5.694724888,7.817479927,6.393612234,8.721949731,2.49595957
-1.6501489,1.892895586,-2.386972872,10.80397077,-6.704655735,-4.189604401,-13.98339316,-13.36565684,-23.51097025,-17.67831987,-23.68308624,-6.222098874,-8.075730154,0.906591006,4.316371196,9.028391795,7.239257856,11.36189866,3.288995177
-0.938057306,1.730353913,-2.127744085,2.721725967,-7.588210417,-5.884330274,-16.46821521,-15.38149647,-25.01038868,-18.73529172,-27.78457093,-5.252475577,-8.590982147,-0.438087363,0.698909793,7.719220788,6.27508091,10.57827101,3.000308532
-1.730800138,-0.083612067,-3.339191021,-17.42580917,-8.481491865,-6.963794229,-19.01261306,-17.40415854,-25.74408715,-21.88023814,-28.98402802,-5.266276377,-9.857191802,-2.501177119,-3.755660654,4.163796766,3.819555055,6.469690855,1.919159791
-3.46115001,-2.64764364,-4.564465953,-37.43344403,-8.504965444,-6.533697173,-20.17927265,-18.0708846,-25.31053009,-25.07764367,-26.92294868,-6.974008318,-11.76659591,-4.473315559,-7.379248199,-0.280904316,0.975733374,1.067049365,0.540963603
-5.463994355,-4.572375072,-4.17296966,-44.45578983,-7.593221481,-4.820618476,-19.28301613,-16.95865846,-23.79540953,-26.17762354,-23.37234969,-10.18133403,-13.95078773,-5.883052392,-9.24873366,-4.026641514,-1.077503794,-2.96314029,-0.788593411
-7.254028967,-4.9610083,-1.857056398,-34.92138979,-6.465321281,-2.990342384,-16.82034419,-14.74797672,-21.93960488,-24.36302335,-20.97473692,-13.71712608,-15.75379284,-6.729668042,-9.534405396,-6.078590616,-1.794826302,-4.062808552,-1.983274121
-8.495271351,-3.987814053,0.960467927,-17.22602059,-5.951617181,-2.201426779,-14.04349676,-12.55810703,-20.60201995,-20.54547906,-21.257599,-15.87638607,-16.30857372,-7.143760844,-8.976639973,-6.314598238,-1.443502947,-2.679272146,-3.030684341
-8.875757285,-2.652196323,2.20891601,-5.013142891,-6.280449238,-2.69718197,-12.02403429,-11.03483645,-19.88480169,-16.50654429,-23.44979705,-15.2625085,-14.85491796,-6.957808199,-8.036587206,-5.193480331,-0.683954802,-0.701093834,-3.755277909
-8.179704098,-1.954337461,0.867717112,-6.456166695,-6.943262521,-3.691885016,-10.94350309,-9.944524539,-18.75711609,-13.56389048,-25.06528429,-11.63350271,-11.25066,-5.688114854,-6.531999968,-3.269776184,0.030083425,0.054381866,-3.816709858
-6.575986914,-2.166081509,-2.137575013,-18.09873873,-7.232550115,-4.111969764,-10.1425336,-8.571441513,-15.72085995,-11.84328806,-23.85356042,-6.232996472,-6.354210816,-3.044294504,-4.098354895,-0.913004318,0.718605461,-0.8811813,-2.98527579
-4.805456812,-2.738775797,-4.607964022,-28.01605409,-6.948324819,-3.523623181,-8.835573657,-6.52548366,-10.17805214,-10.64533062,-19.62631096,-1.291364617,-1.883219142,0.469426409,-1.015221397,1.65799431,1.643969727,-2.491369821,-1.441275729
-3.925931687,-2.849161488,-4.784678182,-25.55777075,-6.622951845,-2.447310499,-6.874160851,-4.231664306,-3.43017848,-9.44338925,-14.53437741,1.125045528,0.355740461,3.48767912,1.469978822,4.20051781,2.869020794,-3.253071235,0.212740272
-4.644532584,-2.095129814,-2.721269698,-9.849244952,-7.046086988,-1.824366872,-4.936004196,-2.666878641,1.649898071,-8.546041386,-11.55790716,0.258866777,-0.517557121,4.482707024,1.80151892,6.358125495,4.047351851,-2.378919377,1.294170749
-6.711421768,-0.791144514,-0.217181593,9.483958414,-8.497075649,-2.148472989,-4.010833741,-2.568649192,2.274491859,-8.809695558,-12.3563273,-2.947336624,-3.871817528,2.786009541,-0.649268424,7.72539574,4.634660212,-0.378720057,1.479593075
-8.925006386,0.318973187,0.614192381,19.56933794,-10.36115174,-3.046902379,-4.624602135,-3.796395244,-2.353124869,-10.66896172,-16.11428621,-6.517690369,-7.880874808,-0.865350293,-4.801258331,7.983775078,4.310691712,1.389676918,0.979874491
-9.86673854,0.650041213,-1.009656641,13.61494562,-11.48561365,-3.669386536,-6.429391923,-5.395636248,-10.27979197,-13.39414304,-20.23460633,-8.748857457,-10.60598182,-4.74477513,-8.326307157,7.016436643,3.22842445,1.735951189,0.30999607
-8.87336015,0.191464385,-3.957427786,-4.710480628,-11.0054121,-3.512372846,-8.462318659,-6.321616007,-17.8304534,-15.33027113,-22.29817016,-9.256847469,-11.1403618,-7.248302465,-9.180277813,4.994802439,1.896694244,0.439509923,-0.138132977
-6.499449399,-0.529424471,-6.049660906,-24.53599818,-8.975520141,-2.923983735,-9.834427997,-6.230056654,-21.7789994,-15.04396264,-21.76253306,-9.022656509,-10.03982692,-7.868500747,-7.095643129,2.455109624,0.845629928,-1.666933601,-0.347976494
-4.08518716,-0.844508215,-5.626564739,-35.471042,-6.315845536,-2.827145162,-10.29523622,-5.694741878,-21.1852471,-12.49944345,-20.13371724,-9.419819985,-8.767752882,-7.303018357,-3.841691581,0.297071678,0.386006595,-3.26654932,-0.554251469
-2.754887435,-0.370133379,-2.608054695,-33.74527884,-4.141686468,-3.892071686,-10.26095446,-5.688605017,-17.67723107,-9.287109355,-19.57761606,-10.9789077,-8.590765278,-6.674865071,-1.955773592,-0.438657195,0.618295849,-3.316807238,-0.889910739
-2.639623173,0.820904534,1.648807151,-22.94824196,-3.0290423,-5.869831897,-10.34430481,-6.758636931,-14.09490178,-7.637566038,-21.14197291,-12.86411832,-9.733687226,-6.552502649,-2.85399888,0.939448774,1.559142868,-1.542559833,-1.161220722
-2.934821582,2.317446265,5.400147479,-10.12476718,-2.764958714,-7.657432505,-10.80235821,-8.551933874,-12.55361693,-8.905716528,-23.99439041,-13.50411352,-11.36411698,-6.57947287,-5.76870553,4.22970867,3.142299542,1.503503999,-0.985734574
-2.711146109,3.609453828,7.554049646,-1.082629499,-2.697779928,-8.045278015,-11.3391115,-10.05027416,-13.28888243,-12.63788858,-26.20281317,-11.9155541,-12.33293937,-5.966215872,-8.359096847,8.149089626,5.037784175,4.709706386,-0.18348331
-1.774622194,4.266461717,7.972624336,1.799825652,-2.328340229,-6.545910436,-11.38241702,-10.31306045,-14.94367197,-16.89908118,-26.33560567,-8.678197681,-12.05512794,-4.351369626,-8.540784195,10.79643462,6.520049439,6.821450889,0.941808334
-0.845967234,4.008599497,7.051196646,-1.035623998,-1.659289972,-3.675685301,-10.57928503,-9.162260044,-15.85982169,-19.5888291,-24.54691959,-5.736033993,-10.87534524,-2.247044635,-6.106975896,10.63356218,6.679159059,6.880914647,1.722148631
-0.918166101,2.744078359,5.172042181,-7.730529008,-1.097103038,-0.540805223,-9.110864222,-7.325778347,-15.29000222,-19.76085971,-22.29968779,-5.075683423,-9.712040096,-0.678965891,-2.862049585,7.413091615,4.987364327,4.60624404,1.59300536
-2.350577549,0.633741281,2.575146953,-15.49954731,-1.088060574,1.876457538,-7.598081261,-5.975318752,-13.68518117,-18.02206539,-21.0273293,-7.21532916,-9.326978134,-0.35413082,-1.162622584,2.417236434,1.837670494,0.586713478,0.542388938
-4.474336934,-1.866675727,-0.36657955,-20.54647323,-1.824960392,3.179401403,-6.68760623,-6.004746282,-12.04431035,-15.83278193,-20.89494029,-10.64352971,-9.798404932,-1.09927118,-2.034413621,-2.205659004,-1.448287052,-3.85422806,-0.833434058
-6.044085592,-4.100725908,-2.949192546,-19.01398213,-3.200998039,3.520727114,-6.626818438,-7.513207226,-11.02459535,-14.34880401,-20.70611073,-12.69763102,-10.55144919,-2.062166993,-4.380262742,-4.601303694,-3.307293832,-7.165829647,-1.7303941
-6.160972392,-5.478921836,-4.415700499,-9.523271577,-4.923109936,3.26320386,-7.116791505,-9.763404238,-10.56676285,-13.70691036,-19.03464079,-11.33367798,-10.84693304,-2.488639958,-5.923163068,-4.123776184,-2.917196534,-8.256832285,-1.687531089
-4.914511255,-5.790041639,-4.564606211,4.470489466,-6.600162807,2.70887727,-7.523374846,-11.57676064,-10.23653893,-13.20932159,-15.64594804,-6.577956311,-10.31791706,-2.383574339,-5.127220268,-1.470661366,-0.763982983,-6.999898758,-0.866979802
-3.248087549,-5.329210772,-4.089405857,15.27761368,-7.75362355,2.077914721,-7.293707924,-11.91799687,-9.848473781,-12.11907346,-12.02966184,-0.650596723,-9.178630799,-2.473520267,-2.535997474,1.917558177,1.670226068,-4.249232252,0.130850709
-2.201357499,-4.706367891,-4.173918179,15.4196612,-7.872266467,1.607624848,-6.315069102,-10.38641206,-9.752054867,-10.34257255,-10.56944396,3.33583709,-8.025175656,-3.507221845,-0.419529009,4.676034228,2.909778846,-1.353789435,0.739169381
-2.164568437,-4.431884316,-5.518792361,3.325712475,-6.625156552,1.538481362,-5.00596907,-7.411369849,-10.52442247,-8.454861438,-12.94474557,3.235975233,-7.437590086,-5.512470458,-0.978666491,6.017248667,2.450145889,0.535364301,0.800095159
-2.710391562,-4.567466166,-7.57557854,-14.24882922,-4.144625016,1.938684271,-4.089474815,-4.068060404,-12.36335308,-7.112512536,-18.94191793,-0.918457001,-7.673062805,-7.667403029,-4.532194911,5.76508652,0.97856582,0.956006635,0.575036316
-3.051123822,-4.708664453,-8.727389618,-25.79297899,-1.113255859,2.565653624,-4.172305004,-1.567042042,-14.726425,-6.3925062,-26.51742627,-7.081389586,-8.606602663,-8.913997983,-9.155478109,4.164826024,-0.274769925,0.187204275,0.43908656
-2.672378556,-4.325202297,-7.428373707,-22.75206445,1.53429353,2.984550684,-5.360366859,-0.628313057,-16.53221934,-5.615193528,-33.01011733,-12.52219344,-9.880885033,-8.80501548,-12.10000763,1.767732062,-0.509683165,-1.070778003,0.551297036
-1.627223944,-3.206295413,-3.476202063,-5.875711042,3.165755301,2.914408957,-7.134992344,-1.068099593,-16.76444792,-3.789797208,-36.60197985,-15.40139908,-11.12221104,-7.87819214,-11.90295901,-0.582804733,0.110070587,-2.121613181,0.770605116
-0.340820735,-1.665037664,1.623609472,14.79156278,3.852024359,2.502111267,-8.587412363,-1.885399141,-15.01876922,-0.333985846,-37.0630523,-15.61997529,-12.09905056,-7.250785968,-9.529264196,-1.894804698,0.72742121,-2.556736216,0.846987608
0.792925583,-0.334111259,5.588607729,26.63757196,4.253671084,2.230966637,-8.909131006,-1.87480637,-11.63314257,4.457909614,-35.45199033,-14.54047402,-12.77531818,-7.771382369,-7.634167204,-1.461434439,0.568069286,-2.32268637,0.682742083
1.627596632,0.296596521,6.938971331,23.09262385,5.027034273,2.489746379,-7.865612,-0.4290818,-7.40970093,9.501365536,-33.20937592,-13.92223703,-13.26711462,-9.409251653,-8.505275505,0.613104098,-0.452232614,-1.646051264,0.425216647
2.159652614,0.240813013,6.013015745,7.753571117,6.207014827,3.17329894,-5.956167156,2.005870109,-3.224301566,13.46767945,-31.37807292,-14.83003231,-13.73430565,-11.33499219,-12.27646931,3.262683801,-1.758773691,-0.912753441,0.32501517
2.314414076,-0.014291493,4.605192793,-8.880327053,7.092040285,3.710474791,-4.131766739,4.188580771,0.201603035,15.42890378,-30.3717971,-17.15479163,-14.25462329,-12.56891348,-16.78926885,4.984979313,-2.681600127,-0.534661368,0.503025234
1.920754193,0.083243647,4.490234367,-17.24403639,6.771060092,3.554004106,-3.222569073,4.929330245,2.346466725,15.25329294,-30.16451274,-19.89666193,-14.74715691,-12.642208,-19.19118422,4.80325433,-3.009624564,-0.798428196,0.83408088
0.933552779,0.677050463,5.992289682,-14.94307942,4.895089402,2.727321329,-3.434966225,3.942497875,2.93350893,13.60529217,-30.50051146,-21.8781183,-15.00318095,-11.77070003,-18.02511431,2.967964469,-3.056340404,-1.729707489,1.037319799
-0.343141229,1.343081162,7.738717268,-6.869504375,2.066172317,1.918840616,-4.252482353,2.06404482,2.099582064,11.6118027,-30.91307263,-22.37620489,-14.81850962,-10.49169721,-14.21979709,0.79594603,-3.231985154,-3.058486975,0.884923561
-1.329229097,1.392793948,7.805942531,0.161118318,-0.490660242,1.977078812,-4.809418026,0.641031723,0.565848969,10.36301445,-30.71405247,-21.33446641,-14.13484066,-9.149895102,-10.2800949,-0.303709494,-3.560794134,-4.343735634,0.358640551
-1.560140408,0.434018649,5.361267973,3.288075873,-1.724151687,3.193732537,-4.477318113,0.536673428,-0.470040155,10.44258934,-29.24140617,-19.15452382,-13.06860843,-7.679780032,-8.370301772,0.123327016,-3.606411419,-5.200752052,-0.349874768
-1.078045195,-1.226406367,1.51003617,5.069117542,-1.392215935,4.988166793,-3.253264538,1.518618284,0.142712348,11.68297843,-26.36762768,-16.3264836,-11.78574838,-5.813026338,-8.788169531,1.309365561,-2.873988069,-5.477714508,-0.964669598
-0.439166016,-2.660714962,-1.32186609,9.751376624,-0.051052482,6.297675689,-1.686218742,2.523237965,2.80107088,13.30177254,-22.86442666,-13.19056155,-10.32137069,-3.458003064,-9.94934632,2.005997171,-1.316518262,-5.261201705,-1.268736636
-0.260890764,-2.867105742,-1.010285143,18.15097608,1.540670078,6.37939006,-0.419586473,2.60247635,6.760495269,14.42697072,-20.14860268,-9.954129767,-8.520016011,-0.89100192,-9.793203439,1.597923309,0.516312254,-4.743658286,-1.184413397
-0.654141491,-1.437569153,2.84535556,26.0172439,3.064793252,5.361908521,0.292177529,1.800858739,10.4531837,14.76797476,-19.37692697,-6.86606307,-6.194245182,1.376470681,-7.456438979,0.601890031,1.818861906,-4.114738295,-0.788466659
-1.036111163,1.10062307,8.708256105,27.50529737,4.79463998,4.083183236,0.730565146,1.240306434,12.41688505,14.99180595,-20.48436524,-4.333232338,-3.408828915,2.878198074,-3.943288783,0.076256345,2.055807637,-3.600554896,-0.298313491
-0.534211516,3.512556971,14.16892952,20.72057261,7.174632416,3.358376193,1.431874848,2.307353874,12.24516027,16.43723649,-21.98712679,-2.824677284,-0.653215108,3.346209748,-1.367871243,0.442961305,1.225423696,-3.585462433,-0.03756164
1.302835396,4.530387629,17.44392714,10.31528399,10.25469959,3.312549208,2.718113331,5.55830521,10.87646133,20.20435235,-21.89179688,-2.594995022,1.29155442,2.646912374,-1.430848944,0.815274688,-0.320942304,-4.595880592,-0.348601628
4.052981695,3.572531005,18.25571235,4.536555009,13.51111219,3.354685081,4.415146794,10.20122293,9.968595418,26.16348453,-19.16647915,-3.430515679,1.763102834,0.673049475,-4.27759541,-0.433882711,-2.264604071,-6.993784522,-1.437574636
6.610219588,1.083709456,17.61678244,8.870398379,16.20985647,2.806293048,5.972917966,14.57397571,10.76286963,32.63140844,-14.66173673,-4.645727695,0.64593301,-2.577063425,-8.474414236,-4.193820478,-4.496831003,-10.51006049,-3.214317613
7.890975456,-1.692142654,16.87185755,21.43494969,17.96224136,1.620074103,6.881611512,17.26008379,13.23112864,37.11038227,-10.66350646,-5.399179165,-1.487576438,-6.720057194,-11.95751023,-9.438652645,-6.907544195,-14.00532193,-5.248857427
7.524171467,-3.362819105,16.78387211,33.98820501,18.94745348,0.539307847,7.05140648,17.98919149,16.10928471,37.74191997,-9.279151664,-5.159693486,-3.640500214,-10.78152769,-13.18233583,-13.45796891,-9.026358822,-15.80273647,-6.925460055
6.016797986,-3.093424376,17.23530296,37.90970784,19.59082047,0.533985769,6.863156382,17.64986441,17.78321648,34.52397459,-10.82431945,-4.013066427,-4.89701444,-13.39203434,-11.74562394,-13.52270991,-9.960229577,-14.54900855,-7.740274543
4.313731516,-0.992677485,17.55097441,30.53937401,20.00156233,1.982704975,6.860521976,17.44796009,17.38360996,29.38816583,-13.48131776,-2.581200515,-4.854213254,-13.43174837,-8.291947685,-8.809619628,-8.841567209,-10.09975416,-7.562376067
3.13455044,1.999702921,17.04175462,17.03774252,19.7168303,4.298429323,7.328434095,17.90581513,15.31920993,24.98677853,-14.58116304,-1.593129766,-3.742088405,-10.76095528,-4.020825281,-1.094240331,-5.518777494,-3.787802654,-6.676450175
2.594308578,4.634853343,15.38628919,6.527146589,18.03948869,6.323935335,8.079350642,18.49357555,12.91430481,22.98527577,-12.59894758,-1.40855657,-2.220014061,-6.493557599,-0.198362494,6.385786682,-0.918777236,2.207271186,-5.569632265
2.32783678,5.994830044,12.75394812,5.652023914,14.71810979,7.174808285,8.601077035,18.15470351,11.47075205,23.07065454,-8.348919153,-1.839209271,-1.023841028,-2.51580086,2.18191196,11.07967263,3.312170794,6.04021193,-4.611518666
1.913283356,5.916857414,9.775123518,14.37144198,10.37927051,6.842894409,8.446964781,16.27086893,11.45367831,23.40228516,-4.438055704,-2.386802557,-0.65993078,-0.472790591,2.677915085,12.66786892,5.735181958,7.162093956,-3.856963395
1.194988326,4.991303543,7.414306717,26.68255831,6.294990877,6.094150281,7.57713482,13.2775604,12.34343004,22.16872529,-3.368108895,-2.684723097,-1.238525376,-0.850501784,1.650040534,12.86246124,5.981397309,6.427618562,-3.107126914
0.274412439,4.148122114,6.657400813,35.08376616,3.614751508,5.793928836,6.404454983,10.43739337,13.16289922,19.06898122,-5.724039813,-2.764152126,-2.442720789,-2.750589592,0.28209533,13.70332335,4.918116792,5.320392778,-2.166021037
-0.721034284,4.065515649,7.967764114,35.13134023,2.644842555,6.246982876,5.514048346,8.946532584,13.20764195,15.57646205,-9.816392716,-2.916867336,-3.622465513,-4.497955643,0.110303231,15.75977228,3.986377283,4.891063709,-1.081739346
-1.792840733,4.737855697,10.75054621,27.10778616,2.729212005,7.074146646,5.250553878,9.057819896,12.42864249,13.76667826,-13.00898701,-3.286058489,-4.034848242,-4.668813341,2.113225942,17.67187131,4.192986545,5.165082625,-0.177057633
-2.974052245,5.463886631,13.30850027,14.56366413,2.802359369,7.6528614,5.453190199,9.873111541,11.25778728,14.60108294,-13.66568841,-3.57986151,-3.211883073,-2.875475294,5.890173218,17.34683389,5.486511524,5.372311779,0.162740383
-4.096946728,5.284387043,13.61469741,1.756019433,2.159315967,7.677383331,5.520697439,9.943549107,10.11875917,17.00064799,-12.21617835,-3.223287877,-1.302227233,0.147415002,9.617381178,13.79034677,6.937407466,4.719244101,-0.20670743
-4.711719732,3.627744312,10.63476675,-7.94078221,0.856196907,7.348461827,4.779956977,8.235136446,9.071759416,18.46313337,-10.58908643,-1.879532678,0.870306726,3.121817699,11.03896686,8.077333638,7.530881217,3.063727555,-1.014689597
-4.317541974,0.77253382,5.333722923,-12.25910616,-0.497578728,7.084349532,2.943532741,4.796162092,7.868836018,16.81541275,-10.55940355,0.100562456,2.196087349,5.027665462,8.962912953,2.701527493,6.946350411,1.011350873,-1.662936485
-2.761926754,-2.182702376,0.47798621,-9.981142683,-1.290286666,7.0819015,0.379192068,0.722576314,6.32449005,11.83415743,-12.35715163,1.75729478,1.977881238,5.615750058,4.219582385,-0.148322001,5.757496754,-0.548290153,-1.532954926
-0.466102671,-3.865684582,-0.916150239,-1.526462495,-1.309349114,7.154270459,-1.989208783,-2.48302142,4.64871308,5.561230599,-14.58112818,2.180214518,0.493778331,5.385442056,-0.701955944,-0.024228522,4.960418595,-1.036687646,-0.331918256
1.760107121,-3.388828333,2.406821082,10.28225793,-0.71260023,6.970000816,-3.125701417,-3.699752636,3.439920926,1.095698842,-15.36484727,1.278490767,-1.038282226,5.145992843,-3.199369647,1.695454478,5.235063435,-0.467149296,1.725693887
3.217349666,-0.860664286,8.887183977,20.66386972,0.289784994,6.424902692,-2.441980078,-2.657028786,3.32657436,0.725907965,-13.77951188,0.01301559,-1.188925596,5.494037796,-2.236111677,3.027205029,6.495289056,0.710571559,4.006865921
3.758442224,2.675370662,14.94572007,25.16357652,1.66614085,5.766564483,-0.153669045,0.103017548,4.530552982,4.673262069,-10.3865112,-0.202055445,0.694403464,6.506533579,1.049536278,2.881840552,8.013398224,1.978652567,5.775457719
3.827513148,5.847087011,17.23625191,22.53409284,3.476740066,5.352519995,2.795403097,3.631921424,6.683654827,11.20044714,-6.644947961,1.437464831,3.94202289,7.756676902,4.243482169,1.709595616,8.964357156,3.024230382,6.568259894
4.064823908,7.728227501,14.84568226,15.84864311,5.598868988,5.291851155,5.228901619,7.057241494,9.034659851,17.84021205,-3.808573803,4.394965875,6.908054628,8.572187911,5.384302049,0.929981401,8.964808179,3.789004527,6.428593651
4.788166023,8.294968252,9.876558987,10.47463627,7.603773196,5.336593602,6.382118884,9.899087266,10.90162887,22.7888483,-2.237994696,7.011008091,8.020287952,8.372120353,4.242988626,1.736385083,8.248921183,4.384885441,5.860628745
5.752580789,8.286674578,5.964765406,10.06886203,8.980556398,5.142515843,6.309696252,12.13054936,12.06155294,25.55770643,-1.54598008,7.589289859,6.804697359,6.934803857,2.258347693,4.233782946,7.423213891,5.008235902,5.513346836
6.361002267,8.587272738,5.77347014,13.6666404,9.540300683,4.648800001,5.797596536,14.02101609,12.82620452,26.64891291,-1.222198732,5.587867823,4.149504286,4.505702447,1.280283822,7.45175639,7.025914754,5.86411027,5.763201019
6.143175485,9.558686738,9.243727772,16.38364246,9.609868022,4.193513095,5.825302097,15.86418502,13.76733457,26.73908036,-1.05711911,2.036525116,1.634572312,1.710737845,2.150289171,10.02889699,7.197383641,7.021098748,6.448647624
5.124757065,10.78111436,13.8076863,13.44656473,9.773286979,4.223027459,6.917471031,17.71413733,15.27325399,26.0878672,-1.039723001,-1.135690036,0.450551583,-0.698493565,4.183580122,10.94059243,7.641765718,8.204375503,6.947131079
3.814926919,11.37127639,16.32219339,4.463691702,10.32594421,4.847493259,8.803131363,19.25554117,17.21215385,24.55009068,-1.023204466,-2.36792629,0.715591886,-2.168637033,5.837312048,9.815368174,7.857931926,8.718575943,6.583469975
2.844419329,10.65252126,15.25927894,-5.555723342,10.90501071,5.666224299,10.5991538,19.8972883,18.90821069,22.01770056,-0.694494417,-1.412562181,1.64368334,-2.584026905,5.923846329,6.870964374,7.476582034,7.730590825,5.128206959
2.538755726,8.709000292,11.5953927,-9.460442035,10.65869582,6.060555095,11.38352576,19.07523228,19.457398,18.8096986,-0.00518193,0.6715667,2.325787606,-2.286121214,4.392818056,2.787112163,6.511817904,4.893536813,3.045969888
2.730117446,6.432001233,7.885891514,-3.14296499,8.876752557,5.722422728,10.76529213,16.61003517,18.21784959,15.65453756,0.383026462,2.361044404,2.42524652,-1.849468116,2.164275754,-1.320006286,5.39423075,0.913706066,1.285200248
2.910528517,5.007214821,6.348825212,11.24138263,5.596183084,4.948448619,9.073013253,12.88883531,15.20000431,13.29241488,-0.734552745,2.635209909,2.230059184,-1.741402473,0.296731501,-4.005631576,4.756347166,-2.483143625,0.70366264
2.584361816,5.168569004,7.403166418,26.3856242,1.681221724,4.412827559,7.05824132,8.714857742,11.11649907,12.02288501,-4.205940202,1.376577317,2.102902077,-2.075461865,-0.76029865,-3.969133658,5.062313313,-3.401577526,1.498286499
1.569606955,6.707238004,9.620756437,34.336126,-1.712944555,4.587713211,5.345947569,4.882314641,7.031200857,11.52825582,-9.543470746,-0.930526057,1.899710178,-2.609906559,-1.277429201,-0.839132688,6.277660751,-1.019092512,3.043382062
0.074896886,8.566441617,10.93356102,31.07352634,-3.883114721,5.303437877,4.023904606,1.745027667,3.789764875,11.07268117,-14.80328073,-3.754596774,0.935885411,-2.972544436,-1.773158752,4.254378036,7.799093517,3.648353961,4.283536856
-1.448275343,9.47674961,10.08402506,18.17876231,-4.947679053,5.837834984,2.645895186,-0.913876139,1.57666385,9.926955064,-17.6790426,-6.765597324,-1.428199359,-2.933744241,-2.464846469,8.943313807,8.750799246,8.141440268,4.440110028
-2.547101313,8.7364071,7.30352708,1.09043971,-5.567461118,5.476238106,0.627214189,-3.595605806,-0.102754627,7.768305528,-17.12639817,-9.630399411,-5.081444224,-2.524110455,-3.101874954,10.83386067,8.525263794,10.01124384,3.55104702
-2.953770691,6.643210661,3.920854992,-14.11625169,-6.268964708,4.081105652,-2.250767585,-6.569503328,-1.980538497,4.863107507,-14.24000752,-11.71888012,-8.968918902,-1.924653024,-3.222104461,8.999205028,7.238696501,8.401241644,2.459845791
-2.640345314,4.303579777,1.390245238,-23.05652299,-6.934214413,2.203952316,-5.56677793,-9.503925071,-4.415476387,1.964386745,-11.56164493,-12.19537009,-11.62732444,-1.24381999,-2.515945373,4.690885623,5.758371067,4.626442208,2.247074454
-1.756969669,2.942245697,0.499679013,-23.61072689,-6.869123968,0.663986075,-8.392076942,-11.54190593,-7.052677361,-0.03081524,-11.22647176,-10.56909594,-12.06124784,-0.388305642,-0.989064982,0.629010717,5.207366197,1.276009861,3.490427766
-0.520885302,3.157073027,1.193103925,-15.6323279,-5.38162959,-0.038290731,-9.747327611,-11.80943568,-9.021016801,-0.525411138,-13.35705894,-7.247514756,-10.29960431,0.844611803,1.102837625,-0.758999449,6.224900175,0.435568597,5.861930763
0.87412169,4.597614565,2.905588806,-0.966754557,-2.392190351,0.008850894,-9.116905063,-10.02142926,-9.537335287,0.447399806,-16.00207469,-3.505707543,-7.24961133,2.517111756,3.356812535,1.056139107,8.485511673,2.297117381,8.333726488
2.289517485,6.265483522,5.021067311,16.24617959,1.411510908,0.355589635,-6.73472609,-6.754601517,-8.455309565,2.227372604,-16.70473753,-0.729730403,-4.035980992,4.357840935,5.242966337,4.432346177,10.85357866,5.157567645,9.839996487
3.619584325,7.219437423,7.152163061,30.18093614,4.987298898,0.662568509,-3.488835298,-3.169163369,-6.314846268,3.940788587,-14.44502254,0.550857287,-1.380482314,5.821930265,6.15604836,6.845964904,12.11906084,6.778237997,9.937038696
4.754273465,7.194971696,9.195059848,35.6650722,7.586240055,0.981983388,-0.491674996,-0.340239473,-3.838911422,5.126318125,-10.36577387,1.053405784,0.550131248,6.413039837,5.686388431,6.802977432,11.82454092,6.06537436,9.026396921
5.574497827,6.708387817,11.2501841,31.27266278,9.143878683,1.62266836,1.467969396,1.362006674,-1.297245642,6.143937531,-6.691675587,2.172360289,1.864882964,6.057040715,4.058658387,4.937248285,10.58958441,3.812266279,8.023720756
5.995991879,6.57781032,13.46130076,20.74809861,10.15160267,2.766487546,2.308565034,2.427747093,1.688906268,7.982180819,-4.774715011,4.846402847,2.635223788,5.237761226,2.353158619,3.456549406,9.673459387,1.980256136,7.729985053
6.024315509,7.213454844,15.77543179,10.97369956,11.15240702,4.216037386,2.661271756,3.796081584,5.663954455,11.46831794,-3.959846393,8.754868073,2.883856805,4.743989066,2.100351097,4.349334999,10.06424916,2.111977793,8.332981786
5.753530443,8.207804735,17.70985886,7.322346735,12.26686088,5.50732974,3.472705933,6.162048475,10.53458682,16.38960001,-2.281826299,12.4978096,2.824062044,5.150532413,4.28800475,7.721584411,11.73756134,4.106018982,9.340731158
5.276219369,8.552587469,18.35295405,9.730614562,13.0914759,6.271012618,5.41046384,9.478087505,15.16403069,21.24084825,1.57773154,14.61678882,2.985344316,6.372003648,8.423480488,11.55338043,13.61849918,6.268620545,9.941977002
4.561213401,7.354527066,16.78993357,12.80610171,13.00906453,6.503752934,8.418110179,12.98487288,17.85527079,23.96474667,6.784482583,14.62414487,3.946997509,7.619486272,12.47671303,13.09876431,14.28008826,6.567323472,9.524577219
3.422093319,4.540049179,12.82774077,10.33347488,11.65847524,6.513990728,11.70667482,15.72983184,17.51199773,23.31375326,10.6988453,13.21805131,5.815954006,7.841295903,13.99239291,10.90574165,12.88900606,4.120224416,8.022479891
1.661800964,1.019125988,7.511076221,0.868180684,9.231558609,6.619585339,14.20810404,17.18410158,14.62867531,19.87931984,10.92715652,11.56376622,7.924328517,6.396940085,11.73140433,5.95170251,9.748014674,-0.174112598,5.910673373
-0.666477891,-1.845818145,2.872036337,-10.17144633,6.415715991,6.894595322,15.20318698,17.50041726,11.24715963,15.92334781,7.420397729,10.3103532,9.124499145,3.527937162,6.642655528,1.037310914,6.090240189,-4.275884564,3.898648648
-3.086739121,-3.110909091,0.831783516,-14.02466032,4.040138163,7.186796503,14.69665393,17.22312991,9.726863549,13.95091035,2.804701348,9.202142516,8.562399418,0.293133655,1.333638013,-1.129736741,3.311397614,-6.383954349,2.53603145
-4.820038698,-2.841008637,1.891653252,-5.357294048,2.64852377,7.344624992,13.27704915,16.68203846,11.11147338,14.93653108,0.514756428,7.576513488,6.34235969,-2.022683131,-1.682933182,0.234179144,2.188418159,-6.042893648,1.960826442
-5.207357884,-1.986525813,4.608909089,12.95153032,2.236086907,7.387303101,11.57807052,15.56628689,14.29466705,17.49857033,2.125335463,5.226602715,3.504988812,-2.662842982,-1.693014182,3.564952639,2.582998014,-4.244356749,1.910781072
-4.182200295,-1.631563854,6.431578343,30.99915124,2.283077868,7.427461507,9.773094334,13.07058712,16.69378621,18.73456965,6.018458095,2.782205003,1.269619303,-1.828369509,-0.126164266,6.213509173,3.742146159,-2.56064035,1.961035411
-2.42672972,-2.165224603,5.469403325,38.46818983,2.064422823,7.433547219,7.523156495,8.581895455,16.04310503,16.24505476,8.52561209,1.222359964,0.118435892,-0.500702257,0.741116973,6.441080427,4.895882647,-2.008568482,1.830451359
-1.019379065,-2.991621309,1.957455147,31.79564691,1.079652095,7.115887294,4.438509203,2.427517708,12.03860244,9.953985556,6.721160716,0.965169966,-0.525212832,0.222710405,-0.296515955,4.676263195,5.707767594,-2.441459536,1.568628568
-0.752330681,-2.998377017,-1.751779349,16.47661362,-0.624017637,6.123551089,0.673606143,-3.919409031,6.610476363,2.403673122,0.704821877,1.419005235,-1.731008421,-0.16505787,-2.369810187,3.126125187,6.318469363,-2.810333987,1.507476619
-1.585065934,-1.439377133,-2.798574293,2.77745217,-2.430311725,4.424046476,-2.879506843,-8.449875173,2.584637407,-2.744050266,-6.404451192,1.49640824,-4.048849681,-1.298026494,-3.259403365,4.046866244,7.051583728,-2.013619057,2.002478594
-2.652452281,1.4224178,0.084829692,-1.802527804,-3.479870992,2.507612689,-5.043552916,-9.732915003,1.696565962,-2.991689324,-10.73815441,0.701423707,-6.883373609,-2.246758602,-1.265239418,7.951941537,8.065734471,0.290510531,3.126682143
-2.859201329,4.389758555,5.559394929,2.438396329,-3.177631392,1.158383364,-5.166202537,-7.805226044,3.418588858,1.485117534,-10.42354579,-0.197178961,-8.798025172,-2.180367739,3.293762265,13.07014859,9.20771214,3.423781137,4.52882053
-1.647208776,6.07304905,10.5665615,8.543293797,-1.57004417,0.908251009,-3.657852189,-4.194677343,5.456652693,8.084457194,-6.705435676,0.378042379,-8.540505471,-0.91477864,8.162831662,16.45607146,10.12067561,6.079737979,5.577982133
0.625816037,5.767054719,12.49602758,8.993109551,0.671994799,1.606326006,-1.784010507,-1.007274583,5.517030129,13.50107764,-2.699304097,3.473667185,-5.991371113,1.010830342,10.7444699,15.96985062,10.47205565,7.064409146,5.72895413
2.97093652,3.849431425,11.00660895,1.795563973,2.67793544,2.490563826,-0.808124835,0.328759019,2.998625914,15.65464519,-0.912840183,8.458847553,-2.296883781,2.734862348,9.922199199,11.73225583,10.1212411,5.92524202,4.874770382
4.480247634,1.454004475,8.116354313,-8.142169213,3.925580396,2.746127516,-1.116643599,-0.194018969,-0.644986607,14.54039588,-1.55513785,13.09486882,0.897687743,3.625991085,6.695055963,6.045743531,9.14134967,3.133638406,3.434436183
4.904396315,-0.304887809,6.509578349,-13.1726479,4.513074776,2.114336596,-2.01022568,-1.427892404,-3.089790191,11.62360284,-2.872823522,14.89434343,2.494997691,3.591874152,3.214366793,1.858904302,7.733962481,-0.231218325,2.090272419
4.658848304,-0.990850887,7.391842131,-9.090581512,4.944004183,1.052688095,-2.338072838,-2.10333398,-2.913505538,8.473066332,-3.026019031,12.77288417,2.477454572,2.970737376,1.106094537,0.859467139,6.129322314,-3.081531653,1.338049799
4.302332713,-0.958280306,9.56752095,1.550025458,5.590084874,0.314655604,-1.475780175,-1.825472552,-0.593589898,5.756698943,-1.799920366,7.719245609,1.599430464,2.158438969,0.458475926,2.505802346,4.5310145,-4.857430575,1.162761693
3.968416743,-0.920428668,10.44709913,11.41531356,6.268651195,0.309461095,0.145585659,-1.27671288,1.979449248,3.25422481,-0.709997106,1.986970549,0.61045329,1.296650458,0.187420652,4.614305009,3.101818188,-5.709600793,1.078671031
3.258106478,-1.354815501,8.180133102,13.93370706,6.304999163,0.788719891,1.40001438,-1.503263919,3.018300696,0.641540795,-1.505244303,-2.498385779,-0.29017765,0.249507377,-0.71236634,5.022333009,1.958578578,-6.245321629,0.512736903
1.690784522,-2.190112379,3.243746476,8.082498665,5.068289696,1.120043933,1.428751467,-2.896625743,2.169720862,-1.779679391,-4.442006583,-5.222804114,-1.353501928,-1.168754781,-2.213510834,3.122507971,1.159857155,-7.017183148,-0.746957123
-0.69149854,-2.954592666,-1.742259949,-1.073714395,2.568273283,0.894109494,0.403940461,-4.731193181,0.657490184,-3.074356161,-7.850173901,-6.862300707,-2.737857691,-2.953440042,-3.402191649,0.205252849,0.696477185,-8.101948696,-2.372756371
-3.132521828,-3.210230637,-3.828916653,-6.246279387,-0.38588576,0.321341159,-0.566484365,-5.674394599,0.204930697,-2.369249147,-9.370381383,-8.11707579,-4.113933224,-4.871138637,-3.474207186,-1.578259688,0.498996116,-9.069375405,-3.726984543
-4.617480468,-2.919301682,-1.815079104,-3.169360456,-2.639947891,0.063417623,-0.354253695,-4.888520076,1.640529665,0.36842301,-7.815745507,-8.766535554,-4.838137719,-6.630908184,-2.573455387,-0.849180633,0.459743439,-9.376325367,-4.330305304
-4.652180378,-2.491881418,2.922793038,6.517695551,-3.448912179,0.646631454,1.185224883,-2.831848799,4.271991312,4.125126952,-4.110167933,-7.858788026,-4.556317546,-8.077026519,-1.669063668,1.941517354,0.456496643,-8.900314644,-4.216594004
-3.728953977,-2.522821839,7.378610512,16.54303141,-2.960885475,1.974895843,2.962284525,-1.066975574,6.451264667,7.367327915,-0.561414878,-4.864888705,-3.667771617,-9.20859055,-1.609781842,4.762948512,0.374112589,-8.186082141,-3.906174053
-3.052849907,-3.431332604,8.873454522,20.26066459,-2.055416781,3.372080973,3.413852263,-1.157606879,6.817134423,8.887352272,0.883732474,-0.680697683,-3.167662689,-10.01333014,-2.286770872,5.367085807,0.133998871,-8.156750577,-4.018075644
-3.682742677,-5.234249338,6.618162727,14.8953789,-1.662454012,4.115861794,1.715970465,-3.474012208,5.23458182,8.371262608,-0.036824761,2.58604884,-3.922786599,-10.30076773,-2.739779932,2.817066462,-0.265088556,-9.441152841,-4.813575092
-5.72548903,-7.548763121,1.907937201,3.106673697,-2.09202785,3.994195633,-1.499740344,-6.835603371,2.770909125,6.381377206,-2.003394487,3.056750228,-5.950684166,-9.742654293,-2.14200739,-1.841657104,-0.717428731,-11.7985238,-6.009636742
-8.207335494,-9.766628821,-2.965527391,-8.852722671,-2.882851042,3.402703173,-4.507390025,-9.294398875,0.8380409,3.90385189,-3.415162292,0.621167838,-8.309833662,-8.142742651,-0.729833813,-6.178555716,-1.029363298,-14.10641196,-6.990089744
-9.735614298,-11.27741745,-6.155668994,-14.99705656,-3.251096234,2.914899144,-5.672355684,-9.488304846,0.234280242,1.848402641,-3.697534087,-2.768964923,-9.725468464,-5.723655355,0.269877638,-7.813455975,-1.000022394,-14.99156208,-7.241383976
-9.458782759,-11.64877077,-7.071609308,-13.06496017,-2.742842564,2.726466063,-4.568107323,-7.555725368,0.792191958,0.772841351,-3.523671236,-4.434575481,-9.475854148,-3.153199169,-0.23495817,-5.762524651,-0.524118788,-13.69976424,-6.681024798
-7.613040535,-10.72983318,-6.209896637,-5.585777809,-1.556087914,2.481525219,-2.193880032,-4.94604942,1.776711122,0.83417082,-3.872527527,-2.954603079,-7.851233891,-1.216085757,-1.991996844,-0.904670898,0.354985109,-10.59503862,-5.646407502
-5.276305399,-8.674274431,-4.404050448,1.959996069,-0.302136597,1.640433453,-0.167447093,-3.309240397,2.583510099,1.825441128,-4.865084711,0.777261192,-5.846782257,-0.331440145,-3.275811488,4.608259192,1.484876723,-6.929293669,-4.583113501
-3.561463416,-5.88455782,-2.184478137,4.724384887,0.546522713,0.058152107,0.454038793,-3.333007312,3.132564361,3.234570649,-5.473024912,4.299560278,-4.36626622,-0.273756644,-2.138883192,8.534261192,2.704127083,-4.053217045,-3.699117563
-2.885150148,-2.893709467,0.325882913,1.626264164,1.028658951,-1.75282108,-0.170714244,-4.39145085,3.700583515,4.395818293,-4.385494088,5.550317201,-3.586346929,-0.327997523,1.88220681,9.590116667,3.915362493,-2.641417922,-2.86125208
-2.841865406,-0.232196171,3.06237021,-3.973153475,1.576123269,-2.928639263,-0.974690103,-5.204222108,4.441730908,4.78603047,-1.279689807,4.465113789,-2.96857145,0.215001672,7.040998894,7.849183515,5.067350999,-2.466635962,-1.803555222
-2.707298372,1.66056346,5.623147718,-6.634917899,2.533503569,-2.886947055,-0.928942511,-4.924949215,5.077909554,4.333776292,2.629411066,2.912729257,-1.861259487,1.581188106,10.37193933,4.432765036,6.072545391,-2.814823909,-0.461981938
-2.108466401,2.461598833,7.19340847,-2.848698936,3.756948352,-1.762059926,0.152928327,-3.791963652,5.042155134,3.474374462,5.284461803,3.041435217,-0.16335791,3.39958007,9.754587021,0.821624838,6.762009754,-3.143553334,0.853213046
-1.310785174,1.977985416,6.872427663,6.019660369,4.656316639,-0.292683106,1.551343119,-2.874131941,3.944860764,2.81110285,5.209550347,5.416577137,1.500263005,5.013741319,5.486579932,-1.788238605,6.959133413,-3.439755925,1.609112199
-0.92494154,0.222768997,4.210887396,14.10930439,4.654759714,0.720770039,2.290341269,-3.173907994,1.966347085,2.588589507,2.547147934,8.494743581,2.225115809,5.953337685,0.125367758,-2.821678879,6.63969293,-4.031314094,1.43031666
-1.320779303,-2.447274886,-0.350774451,14.8770723,3.67839276,0.928352093,1.926673133,-4.820092041,-0.140943126,2.436150025,-1.081279009,9.868745529,1.528041379,6.194957602,-3.305897549,-2.328680626,6.037130677,-5.086171904,0.422901116
-2.258579016,-5.257563268,-5.41124385,5.888051689,2.262282702,0.522372157,0.858012951,-6.953066315,-1.438212222,1.696851734,-3.733479096,8.256267057,-0.248788278,6.03690256,-3.381653097,-0.786400448,5.560919214,-6.287592577,-0.818650438
-3.048713902,-7.178686978,-9.033606554,-8.895075321,1.180092884,-0.082173095,-0.032692034,-8.330768178,-1.295030425,0.157949122,-4.395531549,4.60003612,-2.131106528,5.740546032,-1.05716794,1.153694158,5.539943335,-6.999277055,-1.559494251
-3.110401221,-7.375505255,-9.587295482,-21.27288337,0.893268993,-0.61786301,-0.051868364,-8.150013577,0.317822908,-1.449910829,-3.407294671,1.383823789,-3.143179573,5.275402592,1.340504844,2.884893167,5.970201866,-6.790511367,-1.405260513
-2.4785214,-5.745745513,-6.674471213,-24.1699576,1.248267594,-1.035738176,0.85292837,-6.486134179,2.861748266,-1.760356305,-1.87639975,0.721697131,-2.911722965,4.394939106,2.025518852,3.99657583,6.481656573,-5.864218693,-0.585452608
-1.849518671,-3.176949129,-1.624323045,-16.43195762,1.633752488,-1.26872539,2.161696544,-4.114302822,5.498027069,0.162333401,-0.690297473,2.75067445,-1.83870685,2.964604571,1.040003404,4.344051049,6.5850524,-4.99918417,0.16605752
-2.113667829,-1.235114771,2.889447718,-3.524999791,1.44388408,-1.012537726,3.234065476,-1.947727407,7.412572922,3.772817221,0.041487055,5.576452242,-0.775639179,1.227585397,-0.026759005,4.029948914,6.025833811,-5.021285495,0.066784229
-3.707162444,-1.347643084,4.126222767,6.411231665,0.483770258,0.155101689,3.748239487,-0.537694248,8.072621765,6.964485735,0.753031654,6.757490328,-0.470045338,-0.265899878,0.460100257,3.3104408,4.95945629,-6.213417717,-1.21824934
-6.246676414,-3.932331535,0.859671824,8.195121055,-0.953365061,2.343201171,3.816966146,0.075462593,7.371533269,7.277499155,1.737763309,5.117274409,-1.1604113,-1.050731992,2.736181002,2.469351474,3.789662138,-8.1274809,-3.361922498
-8.70339322,-8.047120805,-5.702685565,2.70950828,-2.326460106,4.992896007,3.772567695,0.189580388,5.64329396,3.676516261,2.689684378,1.495292836,-2.538425381,-1.148877217,5.393499328,1.715648929,2.795725718,-9.933101895,-5.569740133
-10.0000095,-11.8502748,-12.38825012,-4.663461148,-3.176015956,7.005091894,3.853357839,0.169455672,3.520897669,-2.426092036,2.873199071,-2.035559589,-4.031288379,-1.12215029,6.465974837,1.139468005,1.879289187,-11.00604191,-7.035918395
-9.64062389,-13.63122155,-15.81345718,-8.695041301,-3.318252392,7.373776119,4.0319247,0.259243082,1.652801649,-7.823061674,1.740587067,-3.745312599,-5.174165566,-1.674798209,4.939047169,0.724279308,0.689674647,-11.28380346,-7.350681318
-7.981959718,-12.77061243,-14.41064767,-8.123593221,-2.848368541,5.887094392,4.056989236,0.505565933,0.396710708,-9.555500912,-0.556179214,-3.349551676,-5.83587371,-3.072727349,1.523117059,0.388577954,-0.934657379,-11.13386028,-6.610815033
-5.99922389,-10.01850473,-9.405596706,-5.665913702,-2.044726125,3.335396762,3.619862862,0.740369585,-0.313882989,-6.947248177,-3.183175583,-1.882555509,-6.19144421,-4.828021676,-1.826628126,0.033628119,-2.585759278,-10.89723241,-5.217503218
-4.712593637,-6.935988638,-4.032618902,-4.6600721,-1.268553323,1.020032811,2.527079315,0.625412086,-0.805242645,-2.118178649,-5.127906383,-0.62895301,-6.49881111,-5.934013963,-3.206250018,-0.409998658,-3.366214115,-10.5324895,-3.567631654
-4.625248603,-4.903836771,-1.447397102,-5.654368132,-0.859726021,-0.089368372,0.826991944,-0.176710092,-1.291817759,1.478859188,-5.767510332,-0.092589084,-6.842968498,-5.535294274,-1.918779322,-0.938912407,-2.490417012,-9.677874265,-1.888887501
-5.488626943,-4.361410631,-2.712403353,-6.124974867,-0.984743788,0.086518283,-1.118724175,-1.706450399,-1.588362821,1.486185151,-5.095719294,0.192280662,-7.018983873,-3.575654422,1.235142985,-1.449274977,-0.009561593,-8.072197286,-0.309478817
-6.501029445,-4.727724718,-6.200592175,-3.506469422,-1.472189715,0.869024032,-2.659843603,-3.461658628,-1.182751492,-1.726944509,-3.539319179,0.997289128,-6.639885954,-0.946720222,4.571048916,-1.747594026,2.935979975,-5.952227181,0.970407214
-6.796660717,-4.954916844,-8.783263829,1.450355616,-1.785160099,1.491632067,-3.05355285,-4.470351346,0.321759527,-5.419401712,-1.619522705,2.568386352,-5.41611585,1.010795295,6.511189017,-1.611371072,4.660703321,-4.048654731,1.632324411
-5.932456481,-4.254749582,-7.941194103,4.430952546,-1.266101223,1.731766777,-1.835740839,-3.792794342,2.716324756,-6.534367439,0.247532788,4.349902482,-3.430576227,1.350427204,6.334185836,-0.882121947,4.010859021,-3.131706825,1.422782798
-4.102136782,-2.503987277,-3.352343866,1.090377461,0.40774438,1.991692942,0.797970077,-1.214339624,5.074449392,-3.917472524,1.74220096,5.423052581,-1.209197575,0.150855999,4.374805095,0.449125198,1.244987915,-3.43988755,0.431827456
-1.978288509,-0.150657122,3.038420103,-8.543258693,2.855732921,2.8017713,3.885195879,2.367856038,6.192419925,0.916848305,2.585005232,5.19877372,0.498057481,-1.499175708,1.73325586,2.199759793,-1.966036497,-4.447313696,-0.807785503
-0.302659616,2.17411536,8.355408578,-18.86028468,5.04799047,4.208495165,6.051119415,5.253301355,5.318415541,4.947949951,2.598763511,3.759775327,1.110447205,-2.175421047,-0.27291245,4.008645491,-3.526049489,-5.184400419,-1.571793504
0.514661509,3.982679326,10.50169664,-22.2501794,5.858215358,5.591766374,6.205619452,5.862597657,2.638728751,5.775407868,1.858559117,1.636388245,0.522053713,-1.0315558,-0.69485287,5.396519571,-2.278928362,-4.909701423,-1.427720773
0.547823,4.995496552,9.113430325,-14.96425919,4.79608345,6.075916758,4.166317249,3.704713654,-0.86071722,3.108155089,0.730627302,-0.681118685,-0.905055431,1.629296075,0.599076164,5.865656828,1.177328437,-3.659236817,-0.593068702
0.189925925,5.025068682,5.324642793,-0.552138318,2.394103815,5.193269718,0.766705518,-0.292970431,-4.063934353,-1.37547328,-0.339790971,-3.014695484,-2.661889722,4.489964457,2.790090152,5.035715881,4.817824817,-2.277872577,0.15334856
-0.190215749,3.908383107,0.780229862,12.13054064,-0.0827786,3.256433248,-2.666551593,-4.356995806,-6.41069147,-5.485167714,-1.18381722,-5.356502372,-4.478893441,5.97959261,4.429463213,2.797271559,6.468638877,-1.901298688,0.007305821
-0.519043535,1.619777473,-3.27756121,15.04712792,-1.450847822,1.151309526,-5.127585553,-6.959879307,-8.075058234,-8.042189995,-2.10765538,-7.544855966,-6.46020408,5.188162692,4.158804875,-0.573013627,5.179484545,-3.235311807,-1.246824959
-1.030915911,-1.529994545,-6.312728351,6.609796259,-1.381221719,-0.259767692,-6.468564413,-7.670386973,-9.540282033,-9.338657035,-3.710897337,-9.156580452,-8.844723692,2.378231732,1.488696081,-4.415127057,1.770211776,-6.103698498,-3.02097379
-2.029396157,-4.834178713,-8.256696727,-7.411507098,-0.574444681,-0.644848489,-7.29221021,-7.196381346,-10.98507649,-10.38694908,-6.409490096,-9.777206784,-11.59399434,-1.200231839,-2.850902509,-7.852177547,-1.785719997,-9.536215071,-4.30879993
-3.586710137,-7.406746107,-9.169968942,-18.17238801,-0.21342388,-0.260958738,-8.320062765,-6.672837851,-12.05223465,-11.79078235,-10.02284186,-9.414312958,-14.18323413,-4.048953989,-7.276109382,-10.0760118,-3.669748582,-12.3045153,-4.40602579
-5.410532681,-8.581339366,-9.142756597,-19.75479717,-1.107334053,0.396389279,-9.750155526,-6.794911995,-12.22259383,-13.24904413,-13.76617628,-8.645499703,-15.82982071,-5.239952713,-10.24562719,-10.62113912,-3.29877305,-13.54450929,-3.413126745
-6.977331544,-8.229848814,-8.395999266,-12.45978369,-3.153179856,0.997895416,-11.10018335,-7.444380349,-11.45444453,-14.01941661,-16.67303081,-8.304652233,-16.02403622,-4.81883607,-11.10286383,-9.490020494,-1.476401881,-13.09580354,-2.114208466
-7.83251334,-6.77935139,-7.308432665,-1.533260942,-5.471728304,1.506424404,-11.62230123,-7.998053409,-10.46473881,-13.78134591,-18.12493722,-8.914373366,-14.93569757,-3.590632858,-10.29472801,-7.085114902,0.387016349,-11.4152088,-1.315032659
-7.84000042,-4.922892701,-6.216601531,6.884416303,-7.048763493,1.993281129,-10.914379,-7.945862668,-10.29887474,-13.02760179,-18.09022306,-10.30554487,-13.32693962,-2.491259504,-8.857924695,-4.025207704,1.335665685,-9.202545357,-1.170803803
-7.211986653,-3.232938826,-5.147718369,9.165490737,-7.357730268,2.399912584,-9.218377498,-7.252910981,-11.45993267,-12.60921757,-16.93803814,-11.72381245,-11.99286474,-1.996083403,-7.613761779,-0.972971918,1.425158398,-7.022470978,-1.065562408
-6.318816579,-1.930290211,-3.794506622,4.964805559,-6.524758639,2.51492335,-7.187740021,-6.205186039,-13.31653693,-12.87241356,-15.06000582,-12.3356356,-11.16448783,-1.949343507,-6.702968564,1.463451325,1.434983824,-5.142886165,-0.170217698
-5.435072786,-0.918049448,-1.844284088,-3.925139715,-5.016649835,2.19032902,-5.361870745,-4.978743993,-14.36591376,-13.21462861,-12.67012496,-11.74511127,-10.3788588,-1.87323492,-5.765347545,2.801891736,2.056686496,-3.6155971,1.757574927
-4.605534572,0.008835584,0.591876578,-14.61336652,-3.212428415,1.56397091,-3.815736944,-3.409934824,-13.26489801,-12.51224504,-9.941015511,-10.15694308,-8.955452199,-1.469351696,-4.508557964,2.81325286,3.248165595,-2.452416397,3.998552596
-3.704828669,0.96499163,2.87090662,-23.16517602,-1.245804213,1.034580036,-2.270715265,-1.218318309,-9.883141465,-10.0852368,-7.273128916,-8.12388599,-6.699583198,-0.905360515,-3.100627421,1.695318563,4.265300518,-1.716146996,5.27714044
-2.61386242,1.914900043,4.216632682,-24.81820343,0.80879847,0.969130319,-0.532423421,1.52960206,-5.539725042,-6.37244011,-5.33029769,-6.129998845,-4.225454789,-0.667383926,-2.023434927,0.147719132,4.320617161,-1.454590692,4.680508062
-1.362353567,2.744042286,4.352810332,-15.93697309,2.679984977,1.386278448,1.164183603,4.189446084,-2.175314767,-2.728176961,-4.682704458,-4.338150451,-2.57714155,-1.107898308,-1.545884572,-0.822991278,3.321385485,-1.557881337,2.391092618
-0.135438843,3.363969481,3.82849961,2.662891353,3.903091039,1.903890065,2.228091504,5.825264517,-1.039913427,-0.498685096,-5.304030099,-2.646438945,-2.415572288,-2.063510777,-1.340184736,-0.374973434,2.082977688,-1.69336001,-0.353088553
0.840752182,3.770004212,3.692499444,23.82872122,4.139076593,2.016304181,2.149376522,5.826188826,-1.87621439,-0.133844362,-6.395408826,-0.938837517,-3.441444371,-2.868857566,-0.641970499,1.665921135,1.824529495,-1.413313933,-2.069752863
1.433673612,4.044592566,4.708821432,36.53106696,3.524358597,1.477446543,0.9207977,4.345858968,-3.21177947,-1.023764339,-6.810756576,0.706638809,-4.573995997,-2.787077878,1.142702882,4.634243553,3.306183144,-0.388931278,-2.018105868
1.663065924,4.344082289,6.728234731,32.4525332,2.691212661,0.470820575,-0.921304085,2.187937622,-3.517308214,-2.104536485,-5.862898979,2.00891588,-4.794064821,-1.5482659,3.899681801,7.376816368,6.240563756,1.387269125,-0.629773629
1.66244874,4.883118495,8.757215343,12.46768844,2.370769867,-0.567405452,-2.66947668,0.233949739,-2.323557071,-2.641476432,-3.911096277,2.65376316,-3.98330029,0.409605272,6.811916509,8.947232018,9.410058056,3.578118811,0.90908756
1.594274768,5.882527803,9.720539536,-12.37542013,2.87142984,-1.306606181,-3.912868638,-1.100339385,-0.448244609,-2.528008711,-2.219926889,2.501457754,-3.048186146,2.189326385,8.912226508,9.170176382,11.40956819,5.677970431,1.567355302
1.583332926,7.44702515,9.333240613,-27.30114922,3.864238057,-1.747924293,-4.719904169,-1.94142038,0.786237673,-1.961845887,-2.11110769,1.694031307,-3.178436774,3.002587761,9.716017496,8.65693065,11.49654058,7.262713528,1.162714903
1.692389436,9.409777003,8.371878222,-23.79375257,4.662801277,-2.135735606,-5.424743458,-2.570714314,0.660004536,-0.964868943,-3.995377685,0.607633181,-4.81242568,2.653840809,9.415909868,8.253281182,9.978364784,8.140089974,0.345196124
1.919434447,11.26135295,8.092651862,-5.816207926,4.763557447,-2.65711012,-6.254429221,-3.004450098,-0.422740407,0.674751271,-7.006097287,-0.318878769,-7.16336011,1.607246925,8.531278138,8.347514297,7.91719159,8.317874742,-0.042911081
2.191151786,12.28086219,9.230631519,12.82963906,4.1871097,-3.215084031,-7.146836672,-2.983087381,-1.385891793,2.942651228,-9.527199024,-0.797245163,-8.738444515,0.619027451,7.396032204,8.589438835,6.409365847,7.864110414,0.326571225
2.35965354,11.87408464,11.37440048,18.50534161,3.341461062,-3.482912459,-7.896386933,-2.3876804,-1.470913891,5.133796221,-10.23859215,-0.839548367,-8.478886343,0.229201021,5.984903086,8.2467463,5.954707135,6.822508325,1.049627138
2.236784937,9.962475951,13.23964192,7.759231372,2.561174436,-3.18462282,-8.434384688,-1.635087009,-0.889622866,6.019458566,-8.917127707,-0.742815858,-6.615983479,0.479376581,4.217425423,6.901431367,6.30747593,5.284516576,1.377342878
1.684476357,7.178679436,13.66367155,-10.24021683,1.775674029,-2.342162108,-8.918565079,-1.555594062,-0.57505314,4.740921879,-6.433212707,-0.86900979,-4.531180646,1.016858387,2.383692396,4.899471686,6.820924646,3.551807764,0.837807557
0.726008886,4.691669418,12.55966084,-20.71932781,0.645872539,-1.26414431,-9.500942192,-2.715200089,-1.252605739,1.773865908,-4.006998704,-1.313815817,-3.693170271,1.438900014,1.184107306,3.164411945,6.958504291,2.194596982,-0.422173209
-0.401372504,3.685867125,11.06755235,-14.33975221,-0.932641365,-0.289146796,-9.985542525,-4.720518538,-2.652499888,-0.949968618,-2.337614556,-1.692660303,-4.497121418,1.570660349,1.230997664,2.514772393,6.585316178,1.851323551,-1.808559749
-1.319054169,4.736074067,10.7315114,6.146535,-2.439647133,0.480586415,-9.751096559,-6.19440931,-3.586769775,-1.120229475,-1.26976247,-1.277505515,-5.935687977,1.469703697,2.407887497,3.041431626,5.882477958,2.819386539,-2.762194097
-1.695608798,7.417426675,12.27559595,28.39396281,-2.892904031,1.212048476,-8.122511835,-5.631773874,-2.895133352,2.298789522,-0.197469654,0.484381836,-6.389875192,1.205883011,3.703906993,4.047602492,5.039217111,4.702377635,-3.130595068
-1.451733294,10.39766805,14.88071203,39.66579692,-1.544813961,2.110673762,-4.97411861,-2.591839593,-0.519762882,8.052319339,1.186007111,3.355269713,-4.944215817,0.655320524,3.791541746,4.576237484,4.026365506,6.418425421,-3.160225316
-0.846405055,12.01687787,16.53620869,35.38746582,1.403425577,3.135484694,-1.086717412,1.703050891,2.180229882,13.08076284,2.432089743,6.069187965,-2.207601939,-0.482109457,1.969372677,4.063478883,2.643988189,6.669457478,-3.19009373
-0.366360297,11.09227474,15.2858947,20.86004891,4.684525041,3.923026943,2.091831457,4.931184364,3.186634288,14.29055681,2.54882158,6.795011147,0.006027723,-2.441828806,-1.282366808,2.586015402,0.779759272,4.647843536,-3.357265827
-0.464776814,7.538200854,10.55049936,5.822549466,6.636159908,4.00400896,3.193998207,5.093611039,1.125101193,10.41434926,0.714890146,4.164896306,-0.088437611,-5.132126473,-4.624732749,0.568353454,-1.367218989,0.551987767,-3.555925
-1.305468016,2.455964217,3.633832005,-2.962779587,6.229792641,3.144943448,1.699158949,1.794676356,-3.840315018,2.671678426,-3.049418128,-1.730900023,-3.009983574,-8.075884523,-6.842989888,-1.687281691,-3.306960674,-4.435569404,-3.625422295
-2.683568864,-2.388468684,-2.946680307,-5.223903385,3.713825143,1.54167497,-1.802067303,-3.555521998,-10.15443945,-6.175407354,-7.743297015,-9.078535762,-7.660038365,-10.61581054,-7.70763221,-4.152736864,-4.522751535,-8.723199545,-3.541889341
-4.187294055,-5.444827792,-6.893220937,-5.026135127,0.39574286,-0.282235456,-6.00158792,-8.751514035,-15.89774382,-13.60801186,-11.86063219,-15.09503353,-12.06223788,-12.2345647,-8.010896147,-6.769668102,-4.77547068,-11.10060319,-3.425697358
-5.497384616,-6.141339639,-7.420725833,-6.096967405,-2.263610803,-1.779044461,-9.611670753,-12.23773549,-19.8986935,-18.66788705,-14.14289297,-17.43142581,-14.60499383,-12.76509242,-8.755027797,-9.060528519,-4.217098314,-11.27837795,-3.388693511
-6.606696305,-5.095779738,-5.607520199,-9.186783838,-3.55773214,-2.643503309,-11.92881771,-13.91421471,-22.15163356,-21.96803696,-14.14317016,-15.40116715,-14.89758166,-12.37316092,-10.18439572,-10.1803683,-3.244880198,-9.890707669,-3.408940141
-7.777441148,-3.651077093,-3.613289015,-13.16611779,-3.789966105,-2.867364774,-12.90746552,-14.776926,-23.3634693,-24.61906652,-12.33041571,-10.30221185,-13.7248619,-11.37763675,-11.49676273,-9.539043287,-2.236038855,-8.02494532,-3.378359054
-9.23681527,-3.022032835,-3.29030373,-17.5911257,-3.763700199,-2.604803419,-12.83962267,-15.80365974,-24.12610854,-27.07646165,-9.776485663,-4.675514739,-12.28819293,-10.07450227,-11.50604446,-7.508508682,-1.380370557,-6.612094996,-3.27328874
-10.8265998,-3.588913655,-5.075251792,-23.31184535,-3.996673385,-2.0197535,-12.0085995,-17.05733337,-24.42046917,-28.82772381,-7.658948377,-0.988882351,-11.38827433,-8.676585654,-9.723565468,-5.486783412,-0.715582639,-6.033575292,-3.253529838
-11.90416375,-4.779803475,-7.836979452,-30.30413384,-4.325302796,-1.258403282,-10.61183487,-17.72609305,-23.78462185,-29.03434043,-6.803664037,-0.513980538,-11.11949008,-7.344517327,-6.950946448,-5.029721706,-0.275317556,-6.098283897,-3.553327271
-11.64937477,-5.588031724,-9.721362721,-35.43886064,-4.189508298,-0.530210104,-8.932481379,-16.99373378,-21.88846288,-27.44251019,-7.388174835,-2.937565533,-11.15089188,-6.204166388,-4.852171846,-6.583628697,-0.161284422,-6.297330458,-4.237408902
-9.634592544,-5.336945565,-9.396327848,-33.56202106,-3.293152258,-0.152128926,-7.483929981,-14.93820733,-18.95874106,-24.73544983,-8.865888944,-6.748586367,-11.21040609,-5.293837718,-4.790816045,-8.848999499,-0.440514634,-6.125803918,-5.051754551
-6.272104792,-4.143103724,-6.871999406,-22.0675328,-2.024054022,-0.440184186,-6.883250978,-12.66145569,-15.70746388,-22.07105632,-10.1683503,-10.04805953,-11.31994605,-4.500894194,-6.813505311,-9.466675185,-0.966013281,-5.311426263,-5.540515244
-2.770138953,-2.766821492,-3.394451375,-5.064858172,-1.243484251,-1.492772348,-7.486583075,-11.52952658,-12.89782037,-20.27943714,-10.19811896,-11.3507796,-11.64065547,-3.601746562,-9.556840726,-6.71439365,-1.336786438,-3.911574559,-5.3678724
-0.538053979,-2.004763562,-0.559063892,7.514939978,-1.613842063,-3.046683783,-9.07960946,-12.15957356,-10.98398788,-19.44176808,-8.465457978,-10.11026683,-12.16107987,-2.440061113,-11.15012163,-1.013251212,-1.122937711,-2.309482234,-4.58718572
-0.386449255,-2.119162155,0.687625557,6.608075891,-3.043350353,-4.562489737,-10.9170529,-13.99297872,-10.12797403,-19.15977006,-5.53139077,-6.878324074,-12.57121485,-1.129072838,-10.45061707,4.963669059,-0.238202121,-1.123002733,-3.625493048
-2.063372652,-2.746344584,0.454799592,-8.248246005,-4.738296547,-5.519035485,-12.13813108,-15.78958321,-10.48298051,-19.16911242,-2.897776308,-3.082829031,-12.45321041,-0.091016605,-7.745150653,7.821076033,0.846020908,-1.005050546,-2.985230506
-4.471931778,-3.323191083,-0.505349677,-26.87210412,-5.84125751,-5.717203958,-12.27812394,-16.61073275,-12.34737964,-19.65713377,-2.256410761,-0.44132807,-11.61101779,0.157979531,-4.49308968,5.617550137,1.294799564,-2.348622935,-2.901816638
-6.435395202,-3.639475626,-1.62680564,-34.91190069,-6.130619967,-5.369825147,-11.51078723,-16.47641736,-15.9171574,-20.96588762,-4.454848785,-0.155390784,-10.24074291,-0.636455047,-2.381532918,-0.835263207,0.463872025,-5.010044555,-3.225875487
-7.46115525,-4.021855331,-3.059893368,-24.65393364,-6.188400871,-4.914244484,-10.46157268,-16.18729328,-20.7909657,-22.9802005,-8.831197945,-2.23842482,-8.800037439,-2.229620476,-2.375973778,-8.463083455,-1.554012256,-8.233649847,-3.599607071
-7.937657897,-4.972887034,-5.439975688,-1.752520256,-6.873087714,-4.696313511,-9.752963647,-16.5141385,-25.71058596,-24.83709522,-13.43015214,-5.414876168,-7.703669716,-3.962738582,-4.327462109,-13.82946548,-3.827742319,-10.89758169,-3.750946529
-8.623222175,-6.567583597,-9.067184437,17.98581046,-8.510940436,-4.764732247,-9.620110527,-17.46754429,-28.91967902,-25.33180887,-16.06010591,-7.791637922,-7.104356235,-5.141422865,-7.228159564,-15.08951996,-5.089123739,-12.00832024,-3.654658846
-9.843648671,-8.147222777,-13.19395164,19.94510254,-10.4687487,-4.912972705,-9.842010446,-18.25637173,-29.0407077,-23.76619636,-15.55256151,-7.998944297,-6.909150377,-5.446601755,-9.800073572,-12.70874076,-4.547245542,-11.18161948,-3.459827506
-11.06522412,-8.632093268,-16.09991189,1.672967975,-11.4853766,-4.903533708,-9.973077289,-17.94179806,-25.90187171,-20.55173781,-12.39621615,-6.081457665,-6.954644938,-5.07802497,-11.02537116,-8.659992114,-2.451987093,-8.817294443,-3.304134983
-11.22904563,-7.26623878,-16.05193831,-25.06194255,-10.54423794,-4.675409003,-9.65608269,-16.21861696,-20.70414738,-17.03541303,-8.321399649,-3.478964424,-7.138630622,-4.528413526,-10.42642253,-4.911802089,0.022878223,-5.852776326,-3.216564611
-9.618918672,-4.225539036,-12.52858418,-42.82464861,-7.637482671,-4.372990211,-8.797351777,-13.68041376,-15.36791685,-14.63820632,-5.139901132,-2.029358436,-7.389611121,-4.170479645,-8.12385593,-2.372598963,1.532823583,-3.25066878,-3.185778151
-6.572757327,-0.592504453,-6.798491756,-41.08856383,-3.844510387,-4.197801121,-7.546734482,-11.38195342,-11.49166014,-13.95387382,-3.664284244,-2.65812526,-7.550864038,-3.982385047,-4.75621339,-0.880299512,1.437866352,-1.543194694,-3.278715143
-3.426362675,2.315033016,-1.342460306,-23.21565723,-0.661713236,-4.228328957,-6.179711577,-10.08970519,-9.619728948,-14.48019746,-3.442488526,-4.708862038,-7.360644026,-3.621747859,-1.273537313,0.093063278,0.181174034,-0.698689564,-3.634900137
-1.665221726,3.764880858,1.568446957,-2.851480454,0.926090357,-4.36163045,-4.997987388,-9.8262207,-9.250313227,-15.13789269,-3.410016638,-6.434623617,-6.615084351,-2.774803308,1.410007194,0.821961781,-1.092713561,-0.339744471,-4.301412572
-1.900476104,3.966069338,1.19236255,6.870826218,0.970515833,-4.410836252,-4.269355632,-10.01806847,-9.449425668,-15.11885892,-2.870073124,-6.300040576,-5.394342844,-1.48412354,2.81472669,1.294567755,-1.386875265,-0.107889511,-5.070676829
-3.457912975,3.716550224,-1.367394974,2.614004278,0.343169111,-4.258913762,-4.148356799,-10.03861907,-9.532231014,-14.39865102,-1.998072095,-4.111389669,-4.120824798,-0.176163996,3.122099837,1.583435419,-0.537126085,0.096400734,-5.527071376
-4.912692109,3.662081033,-4.042278101,-8.248135557,-0.005538481,-3.935150194,-4.55392256,-9.647627707,-9.329287028,-13.58285435,-1.49348198,-1.114729615,-3.328102362,0.645351416,3.029400615,2.049641723,0.758749367,0.137212732,-5.33001836
-5.165555971,3.779330424,-5.217970451,-14.85037851,0.264225797,-3.564263658,-5.091090455,-8.990689908,-8.973963505,-13.31210094,-1.724508964,0.995037339,-3.272640036,0.80017248,3.26625187,3.060438186,1.552218927,-0.142450555,-4.516539389
-4.227524165,3.488264104,-4.681227076,-11.6745758,0.733987007,-3.254101263,-5.155349975,-8.253232874,-8.542282086,-13.75398051,-2.147374479,1.360870449,-3.694461689,0.60366879,4.08493202,4.491119857,1.39764139,-0.715055517,-3.538490969
-3.112012746,2.26829876,-3.477283469,-1.982516734,0.673683116,-3.03227545,-4.257228546,-7.366993729,-7.922198614,-14.55014033,-1.573938717,0.536328613,-3.955907599,0.662253068,5.102046447,5.59133556,0.663047128,-1.333893408,-2.95356029
-2.945945448,0.239677028,-2.892656273,6.051027021,-0.304422489,-2.883076627,-2.407909924,-6.083211281,-6.99523305,-15.16316048,0.836206515,-0.07728608,-3.499676758,1.436242698,5.623695609,5.487468898,0.178948561,-1.682450787,-3.001201838
-4.030401212,-1.789486084,-3.406834049,6.374043057,-1.893560185,-2.83533761,-0.286076203,-4.353513959,-5.887249496,-15.27329797,4.619248295,0.558336756,-2.298209939,2.893706455,5.205831569,3.946818402,0.529225906,-1.585075719,-3.427069071
-5.605426508,-2.862446393,-4.414703476,-0.769350676,-3.292413084,-3.002870755,1.00247702,-2.645764382,-4.994444381,-14.93118083,7.904873332,2.241460443,-0.945436979,4.508064672,4.003985415,1.685381123,1.556162082,-1.126886788,-3.726149267
-6.487812685,-2.570842618,-4.86966403,-10.27440028,-3.787646418,-3.522535997,0.492188191,-1.850888847,-4.740177069,-14.45576741,8.393982003,3.664529049,-0.30075105,5.592440264,2.632698586,-0.157128252,2.463613309,-0.60768048,-3.605194079
-6.039479682,-1.357975361,-4.262760186,-16.92052543,-3.281864116,-4.428300103,-2.078865341,-2.780051938,-5.302461495,-14.26912542,4.831440992,3.411879377,-0.934192971,5.719789414,1.656867001,-0.988559423,2.42142271,-0.365749197,-3.249009223
-4.670514123,-0.197882863,-3.110025256,-18.84638675,-2.389888255,-5.560245884,-6.070583662,-5.60674661,-6.579678257,-14.8039346,-2.027587403,1.012163937,-2.771345519,4.933047794,1.13804233,-1.31383153,1.188353573,-0.578639181,-3.127825629
-3.483429352,0.089720625,-2.543259492,-17.24511782,-2.042591158,-6.586360629,-10.23894844,-9.670288501,-8.402813183,-16.42175086,-9.656792772,-2.744069551,-5.177936604,3.625428979,0.603843218,-2.290723865,-0.722061944,-1.151563055,-3.4937694
-3.377754027,-0.635544845,-3.338796315,-13.71767984,-2.871049943,-7.134044264,-13.33640767,-13.78045996,-10.72066848,-19.20554875,-15.08974231,-6.379337561,-7.387501781,2.220130709,-0.55044256,-4.594287479,-2.432864853,-1.757072762,-4.023848406
-4.361314012,-1.839112901,-5.184525583,-8.645387488,-4.771787834,-6.95443798,-14.63832861,-16.78922495,-13.48473774,-22.65962403,-16.490501,-8.66769324,-8.930632357,0.908585945,-2.569913135,-7.580428007,-3.321974543,-2.019432436,-3.979473226
-5.612288776,-2.791313565,-6.81062529,-2.228942721,-6.916100377,-6.028118503,-14.10730655,-18.03360135,-16.28036885,-25.5937181,-13.97148528,-9.218223657,-9.759852991,-0.370014335,-5.145848086,-9.580846008,-3.391407501,-1.763847138,-2.813413931
-6.193444363,-3.124245027,-6.930660783,3.471973347,-8.180328069,-4.565070472,-12.18250348,-17.41536936,-18.09660886,-26.48464944,-9.208501358,-8.382716707,-10.03652621,-1.731225629,-7.627917977,-9.218915968,-3.143712591,-1.196435147,-0.733638364
-5.788525569,-3.054436341,-5.285038589,4.547009412,-7.731591179,-2.913544069,-9.426112157,-15.20087163,-17.63147434,-24.28229731,-4.223006953,-6.747263005,-9.822491374,-3.120381883,-9.410902517,-6.693283447,-3.120526428,-0.881560484,1.288425488
-4.851598653,-3.149911303,-2.95909347,-1.720853444,-5.44083497,-1.430096594,-6.297494526,-11.81350493,-14.10895849,-19.19034331,-0.215196166,-4.724400351,-8.973360976,-4.255178221,-10.16560288,-3.881713498,-3.49548255,-1.469336712,2.147642902
-4.093814685,-3.858693514,-1.667843617,-13.28535915,-1.921316113,-0.365631957,-3.156535353,-7.804382641,-8.062481079,-12.81232432,2.800201873,-2.531370953,-7.328162075,-4.783768795,-9.793475509,-3.028764827,-4.018533072,-3.279162937,1.417154102
-3.805076313,-5.150517595,-2.478728934,-23.08563375,1.791817777,0.195704558,-0.380875339,-3.931597845,-1.396578846,-7.416109576,5.444764775,-0.40575798,-5.011044826,-4.53287777,-8.278785376,-4.977727781,-4.292524193,-5.97779549,-0.301202315
-3.627651896,-6.495852055,-4.90192935,-23.45641592,4.725360835,0.330140523,1.602882394,-1.111681896,3.516876866,-4.70963538,8.065721816,1.296328214,-2.544875215,-3.654158977,-5.694945802,-8.374455814,-4.10528014,-8.591951549,-1.79095032
-2.975151579,-7.158648666,-7.0633,-12.22311999,6.363386336,0.208753266,2.469795087,-0.097401496,5.210049706,-4.930413825,10.22534086,2.283319583,-0.623845506,-2.558609232,-2.410425944,-10.56430425,-3.544174684,-9.922819297,-2.098642365
-1.704725336,-6.603426237,-6.923463188,4.640571123,6.777886017,0.005573502,2.233431433,-1.014049155,4.013414427,-6.866637813,10.98566471,2.59849252,0.317817006,-1.68525865,0.751078329,-9.55913321,-2.848760096,-9.169283788,-1.202571962
-0.417127472,-4.799167827,-3.746702607,16.60212781,6.469501215,-0.172182113,1.360410406,-3.102521255,1.785893275,-8.759961921,9.739415453,2.641600225,0.411875866,-1.26173384,2.699968746,-5.564095148,-2.187534335,-6.395926185,0.03172743
-0.079576221,-2.292523686,1.200051687,16.12490702,6.035815763,-0.294260635,0.614323362,-4.958890729,0.615429609,-9.409870691,6.901225278,2.834305053,0.276732113,-1.207200243,2.645287963,-0.86795727,-1.576449294,-2.54299483,0.545186708
-1.259398604,-0.027667684,5.250998599,4.365474336,5.851477398,-0.362079399,0.669344559,-5.236881859,1.395077936,-8.708868365,3.863786367,3.197195133,0.576449042,-1.222460516,0.671311653,1.821334648,-0.984684513,1.047006213,-0.135774962
-3.608208833,1.030210582,5.907695618,-9.61073095,5.912975661,-0.357928167,1.709893737,-3.425798916,3.289661327,-7.343725982,2.170314146,3.247644451,1.521773765,-0.992528223,-2.16724977,1.303641481,-0.478295362,3.300325633,-1.629356669
-6.044009858,0.338803926,2.367189311,-15.61457607,5.899605365,-0.24634394,3.268890545,-0.207836551,4.452184618,-6.063467526,2.456572154,2.371406406,2.674748573,-0.373096196,-4.422127909,-1.386196945,-0.223677064,3.872667276,-3.091269133
-7.506350556,-1.906135778,-3.977438447,-9.84864331,5.390672319,-0.037317159,4.427666377,2.863888525,3.425967092,-5.184751944,3.931249003,0.387556112,3.207554661,0.536137611,-5.161819847,-3.928778641,-0.331100995,3.149958459,-3.895363571
-7.691105326,-4.783951217,-10.3744939,2.606698458,4.114035333,0.148881018,4.289374464,4.195906761,0.18839828,-4.684270661,4.824757367,-2.179147536,2.443894009,1.450958392,-4.558700837,-4.509178096,-0.701350886,1.861008545,-4.042729148
-7.194168246,-7.06019478,-14.31829517,11.95650332,2.106390589,0.101290778,2.474599915,2.996933834,-3.888713697,-4.638687063,3.568271008,-4.376382445,0.315405742,2.047906526,-3.687779181,-3.019400045,-1.057766882,0.619143372,-4.019823904
-6.976301709,-7.825066312,-14.87224323,10.90230194,-0.275513601,-0.349168246,-0.633250744,-0.364857456,-7.044806946,-5.459045713,-0.069821639,-5.443443391,-2.566324566,2.122242798,-3.658235012,-0.821349527,-1.171143588,-0.29639634,-4.298403356
-7.59501962,-6.990994991,-12.90657465,-0.707835468,-2.48096461,-1.162451993,-4.034695785,-4.66774106,-8.290372754,-7.603909459,-4.68216397,-5.275725298,-5.250347643,1.693528095,-4.723645839,0.579657787,-1.078645719,-0.841498629,-4.928595396
-8.801236221,-5.308378085,-10.22370809,-16.81008273,-3.965184776,-2.030254116,-6.584698128,-8.564796862,-7.882131543,-11.00788998,-8.017446191,-4.389821982,-6.956471688,1.015365229,-6.051603345,0.773385803,-1.067891484,-0.972959835,-5.533762372
-9.771016405,-3.851109479,-8.289183198,-30.00027433,-4.381580748,-2.515977459,-7.540845322,-11.2532805,-6.879768141,-14.80198976,-8.399252716,-3.48593001,-7.428615007,0.472993113,-6.336752082,0.603172987,-1.396582288,-0.540142657,-5.64124272
-9.733493604,-3.300962189,-7.473982227,-36.01802399,-3.695544467,-2.335244915,-6.894963131,-12.68761913,-6.259607696,-17.69390709,-5.850759927,-3.024228277,-6.947456862,0.391769067,-4.800469674,1.22255514,-1.97988035,0.587209381,-5.023063396
-8.485418708,-3.53204861,-7.240074739,-34.72714517,-2.179393733,-1.583852749,-5.30825,-13.27448645,-6.311651296,-18.78932019,-2.16343992,-3.143576587,-6.060741237,0.831210474,-1.837104709,2.933883832,-2.354947569,2.281766503,-3.780273737
-6.440017464,-3.799032255,-6.953340595,-28.02983324,-0.292370588,-0.722553589,-3.691884378,-13.34156914,-6.697426359,-18.19841557,0.181966979,-3.863902986,-5.251460112,1.477679958,1.15039578,4.803397687,-2.023568287,4.053932066,-2.1822028
-4.266188992,-3.387246589,-6.566611952,-17.6062401,1.501510852,-0.290653382,-2.681527326,-12.80540867,-6.954221126,-16.89926095,-0.416417366,-5.226430928,-4.748526833,1.732493297,2.576896076,5.338778999,-0.934776312,5.21865495,-0.483522391
-2.472843965,-2.227111743,-6.604679066,-4.705520956,2.892763868,-0.53134652,-2.318620982,-11.29363275,-6.913072888,-15.93807695,-3.619630917,-7.134984202,-4.537577096,1.001060509,1.566725372,3.632430656,0.30517131,5.24380666,1.100258727
-1.256307664,-0.998010314,-7.522025487,8.492482303,3.787813908,-1.202436491,-2.124192375,-8.624288673,-6.68391806,-15.61567257,-7.284496294,-9.060802321,-4.484792311,-0.942383261,-1.657152368,0.044547839,0.738006548,4.031815866,2.298540664
-0.638684236,-0.64286457,-9.056193481,18.26831887,4.255562273,-1.728492591,-1.503076329,-5.25721564,-6.327135505,-15.33553315,-8.741263689,-10.041181,-4.44933864,-3.726841589,-6.029982156,-4.065424781,-0.290794118,1.930874619,2.764988192
-0.667091456,-1.67414777,-10.20738332,20.97751541,4.417340135,-1.600016336,-0.20555171,-2.318653198,-5.62939584,-14.23380201,-6.438685613,-9.212006099,-4.329045489,-6.469218013,-10.24987759,-7.277880215,-2.607456883,-0.520165518,2.244734345
-1.437383318,-3.807012664,-9.933618993,15.78081402,4.374901793,-0.732654216,1.458745819,-1.086042036,-4.271806678,-12.04484375,-0.953943388,-6.581516171,-4.07069495,-8.17939469,-13.30528298,-8.976601705,-5.245403755,-2.910573977,0.816080204
-2.922349561,-6.183431507,-8.015613354,5.801625447,4.23202917,0.478335802,2.78896046,-2.218130656,-2.263180969,-9.452120456,5.243267506,-3.372844156,-3.694819144,-8.283906897,-14.70833179,-9.55037157,-7.058777843,-5.10591045,-1.041180217
-4.799064395,-7.979630231,-5.356856164,-3.819635294,4.172348996,1.444867054,3.120859454,-5.243955494,-0.209598724,-7.610983335,9.129410555,-1.463537981,-3.329971371,-6.956192633,-14.49844257,-9.910126024,-7.477060107,-7.141918722,-2.681655768
-6.483574205,-8.904650452,-3.416434119,-9.608172268,4.484368336,1.791354631,2.227110635,-8.701394857,0.910462738,-7.234587429,8.780631058,-2.15789668,-3.196230215,-5.026452893,-13.16762228,-10.76976282,-6.834408809,-8.983472633,-3.688594612
-7.395064326,-9.224120543,-3.178665644,-11.98650834,5.446535491,1.570847696,0.438829397,-10.90131646,0.37742357,-8.005694762,4.396537588,-5.168774161,-3.496657646,-3.49482757,-11.53106859,-12.1888976,-6.023536959,-10.36271867,-4.107939145
-7.268012013,-9.357305143,-4.459536852,-14.01550081,7.101721537,1.141772031,-1.563036259,-10.86389173,-1.693146552,-8.805064568,-1.855122805,-8.661476891,-4.265383299,-2.934430864,-10.44202162,-13.57743221,-5.74692217,-10.83526749,-4.31770634
-6.291367791,-9.440016487,-6.098367948,-17.79321483,9.075992629,0.828431982,-3.125007376,-8.836602677,-4.293011307,-8.571549949,-7.038522437,-10.45142027,-5.296107064,-3.163646906,-10.33639955,-14.03590578,-5.954367632,-10.02204565,-4.644220107
-4.997276119,-9.237434957,-6.882345813,-21.91933672,10.61781509,0.656472574,-3.92513953,-6.070560148,-6.070538901,-7.103322793,-8.994225003,-9.524820938,-6.244961814,-3.408559911,-10.8469656,-12.79187712,-5.909742987,-7.873111166,-5.06813452
-4.004973953,-8.456302802,-6.474162559,-22.54289557,10.90696562,0.382023989,-4.048380648,-4.024697873,-6.127651756,-5.18444959,-7.383270115,-6.738115357,-6.865496246,-2.856293735,-10.86744572,-9.56687612,-4.832888238,-4.78395953,-5.286134593
-3.790878161,-7.147810814,-5.62862073,-17.16995412,9.48422462,-0.218111328,-3.84283578,-3.537624733,-4.536257364,-3.984899309,-3.707844237,-4.151116329,-7.197685464,-1.231039742,-9.230709646,-4.790981159,-2.607513582,-1.495805387,-5.065656299
-4.575974192,-5.819411649,-5.567687185,-7.68422858,6.534431027,-1.050245484,-3.683954492,-4.49133072,-2.26196386,-4.244266987,-0.364948634,-3.506855092,-7.529005807,1.001297724,-5.668741379,0.422215349,0.008427392,1.167017468,-4.548261278
-6.304912783,-5.136060875,-7.042903659,0.457093997,2.823968751,-1.66705565,-3.781163503,-6.111776203,-0.587911253,-5.856358207,0.698836054,-5.029409229,-8.109084591,2.945867277,-1.345900224,4.628112696,1.847003469,2.600502469,-4.191196148
-8.657876813,-5.44928789,-9.811957443,2.475740448,-0.682812364,-1.54638217,-4.093955896,-7.600565388,-0.418312498,-8.083995716,-1.015086711,-7.426353179,-8.817608462,3.8966139,1.598709923,6.679623524,2.125871257,2.641373561,-4.369765473
-11.0959108,-6.535796914,-12.86236783,-1.654977491,-3.284863725,-0.48417821,-4.359345959,-8.605364079,-1.844214754,-10.12346564,-4.421833039,-8.994538707,-9.073426659,3.827953615,1.386010879,6.332038724,0.982202899,1.618312391,-4.995696501
-12.99360275,-7.74528089,-15.09970304,-7.004620256,-4.792678786,1.196759771,-4.209663388,-9.233858772,-4.143376897,-11.53593989,-7.591425812,-8.864091476,-8.128141028,3.410340238,-2.047594215,4.397890761,-0.643072037,0.202411102,-5.523852516
-13.86889865,-8.422493085,-15.91077672,-7.730150295,-5.436226406,2.782455431,-3.35451089,-9.712778287,-6.152564281,-12.28475879,-8.883120703,-7.388382965,-5.5930926,3.529956699,-6.717415745,2.233348998,-1.671317421,-0.903483501,-5.385837839
-13.60424746,-8.271437049,-15.23759114,-1.999085095,-5.553755956,3.550816609,-1.772255983,-10.05980246,-6.821661817,-12.50172572,-7.798884894,-5.488215125,-1.82971164,4.641546432,-9.700016516,0.815167525,-1.611376585,-1.312800222,-4.494332626
-12.49225473,-7.419718769,-13.29414982,6.40427298,-5.323080614,3.135028821,0.188670457,-10.06845946,-5.728526475,-12.29072651,-5.087345066,-3.67118128,2.11676485,6.402730463,-9.05442711,0.051076089,-0.840059919,-1.159922314,-3.368170609
-11.02918392,-6.21045052,-10.34237482,11.11850083,-4.725228833,1.642383616,1.899314559,-9.588479864,-3.342737876,-11.73717496,-2.11748839,-1.676803599,5.047801959,7.842737705,-5.231983498,-1.114521566,-0.280959003,-1.013568643,-2.738179603
-9.57469932,-4.94825031,-6.766914515,8.228328234,-3.716381854,-0.494346136,2.739229864,-8.805722202,-0.875866796,-11.02257215,0.001149242,0.938159435,6.263604274,7.948947968,-0.902755783,-3.803773994,-0.748682837,-1.49802631,-2.946845226
-8.129795296,-3.796940628,-3.265445936,-0.954248543,-2.41181404,-2.769396082,2.445150213,-8.227860358,0.295393369,-10.43738301,0.951828998,3.877474268,5.883538124,6.275102888,0.786907591,-8.159713019,-2.418359569,-2.81720416,-3.650439207
-6.419321966,-2.834668634,-0.762039781,-11.40953916,-1.09695351,-4.770653682,1.291703017,-8.352359119,-0.602389851,-10.23389105,1.093885175,5.815167455,4.616787593,3.179596162,-1.638868528,-12.97051926,-4.738059251,-4.486152461,-4.087855276
-4.230216314,-2.123096576,0.093634518,-18.48237836,-0.055308199,-6.200957463,-0.048753987,-9.284639928,-3.221028055,-10.47631507,0.895099215,5.174455964,3.177709385,-0.425020003,-6.941963498,-16.30687799,-6.77415018,-5.490930264,-3.700748785
-1.739233122,-1.680330279,-0.514449132,-20.80514162,0.621311516,-6.844079711,-0.904422955,-10.62703816,-6.215247704,-11.07234473,0.444581593,1.436473719,1.80814998,-3.597357707,-11.98062572,-16.73782896,-7.720305265,-4.840483464,-2.590596644
0.446932531,-1.404922848,-1.528010696,-19.905339,1.05767484,-6.594315011,-0.996367753,-11.73030689,-8.02993328,-11.96276513,-0.523514646,-4.121704254,0.271154312,-5.800354453,-13.80401545,-14.23571473,-7.265154709,-2.202090399,-1.43958881
1.59998287,-1.094522606,-1.719503705,-17.67290708,1.428277856,-5.560148807,-0.546228642,-12.09682822,-7.883189357,-13.22860584,-2.130107212,-8.987455036,-1.713689164,-6.99487249,-11.55244812,-10.12527957,-5.66681745,1.780945468,-0.977157282
1.315939278,-0.618041925,-0.691089762,-14.69671532,1.755931726,-4.123860591,-0.028922455,-11.61692452,-6.260916723,-14.91429976,-3.86509045,-10.97349189,-3.996398348,-7.423480578,-6.860574195,-6.17528424,-3.571773698,5.720483092,-1.444061853
-0.220090117,-0.110562193,0.675301219,-11.09192045,1.871418381,-2.829049532,0.22237557,-10.49391936,-4.531410173,-16.67426843,-4.655485705,-9.650774315,-5.927032588,-7.325887156,-2.575579592,-3.560241294,-1.714628662,8.160793792,-2.476874191
-2.332153454,0.030539691,0.825402208,-8.376624706,1.579948592,-2.104854557,0.233620716,-8.999720247,-3.934360294,-17.63555285,-3.58848512,-6.584770386,-6.793028089,-6.821023584,-0.807784987,-2.432137241,-0.629982032,8.320254177,-3.452787569
-4.234811935,-0.566349886,-1.163490194,-9.498469663,0.87575958,-2.003249831,0.256628171,-7.332235085,-4.705742888,-16.79646858,-0.78947115,-4.212918219,-6.418945768,-5.997855683,-1.731426033,-2.270104419,-0.463055704,6.475444528,-3.951768029
-5.439522613,-1.860207176,-4.625281947,-15.98007475,-0.018080342,-2.164241671,0.418351255,-5.70180063,-6.025452417,-13.82601764,2.298467456,-4.217128113,-5.407860606,-5.056577176,-3.890185456,-2.542846855,-0.93425962,3.782991947,-3.94530021
-5.951205049,-3.253727129,-7.582667538,-24.64229808,-0.855556171,-2.074839675,0.486635676,-4.501224675,-6.823980222,-9.661349552,3.623115416,-6.565018452,-4.766260524,-4.306162597,-5.590856099,-3.064282385,-1.483904907,1.660007545,-3.623367301
-6.1883542,-3.897981927,-8.185336414,-27.83399736,-1.645681598,-1.457345391,-0.00218782,-4.287252427,-6.763768705,-6.28667144,1.853614116,-9.805444346,-5.160054301,-3.97633733,-6.203525015,-3.830139108,-1.559699825,1.073253456,-3.117897269
-6.71922112,-3.293237072,-6.222792392,-18.53594573,-2.718053454,-0.500344714,-1.326106832,-5.46379005,-6.535930956,-5.636838668,-2.595842864,-12.23198187,-6.383654828,-4.000634758,-6.382784853,-4.666413957,-0.91917848,2.100746066,-2.440471843
-7.955242716,-1.745891723,-3.445864921,3.003779175,-4.441360146,0.25460243,-3.221603745,-7.874952938,-7.17789808,-8.30394788,-7.658083782,-12.96024743,-7.492326611,-3.989754661,-7.165582686,-5.176114623,0.227042476,3.953946273,-1.681645445
-9.906643465,-0.287639022,-2.31777142,26.92617691,-6.770301167,0.301209284,-4.927954634,-10.68646122,-8.982989639,-13.01072458,-10.85433253,-12.19419369,-7.53072818,-3.474393755,-8.805841548,-5.107438169,1.336894082,5.409515163,-1.201188233
-12.07256513,-0.043430614,-4.096797643,38.91692657,-9.004223982,-0.452277183,-5.655171843,-12.76296277,-10.99648486,-17.33686052,-10.85330423,-10.69793047,-6.297007794,-2.264073883,-10.36512477,-4.761913861,1.862015215,5.422571517,-1.506036362
-13.54012232,-1.463755316,-7.766400116,29.98040999,-10.0405902,-1.596712794,-5.13513608,-13.34617806,-11.65820628,-19.25695985,-8.24320708,-9.082408625,-4.524021988,-0.641446747,-10.40813944,-4.935795649,1.565370186,3.637585884,-2.821372148
-13.33789695,-3.968649036,-10.71534291,3.501043507,-9.038540853,-2.493478731,-3.816262897,-12.54459504,-10.16540969,-18.39909904,-4.976768296,-7.509657571,-3.307923196,0.789157211,-8.226963648,-6.300601853,0.615988315,0.571951217,-4.720443758
-10.95926384,-6.268355433,-10.68256359,-26.34253344,-6.050505517,-2.70070464,-2.52967271,-11.23846211,-7.414496385,-16.11057373,-2.938185115,-5.919940825,-3.223388133,1.517726202,-4.58677635,-8.70643241,-0.591364324,-2.613595017,-6.221577391
-6.787738248,-7.141851899,-7.445979445,-44.14168628,-2.134123692,-2.242845521,-1.880058484,-10.44269691,-5.596783505,-14.31575367,-2.725559709,-4.404980359,-3.839744221,1.506474923,-1.37106989,-11.06790371,-1.733937359,-4.665102394,-6.396227532
-2.092074342,-6.141207677,-2.922793102,-43.63557338,1.205110897,-1.542467,-1.843424758,-10.60550445,-6.580134054,-14.06718873,-3.532559455,-3.300595571,-4.053419376,1.230485889,-0.370024906,-12.04653085,-2.734194619,-4.85297071,-5.059918819
1.544072335,-3.775780239,0.370004595,-30.91518426,2.902919304,-1.092068121,-1.887168855,-11.38168974,-10.27578379,-14.89344766,-4.117274653,-2.929299447,-3.001844076,1.322849291,-2.106308545,-11.03769179,-3.683142864,-3.340593698,-2.973992539
3.099284964,-1.124791341,1.221033015,-18.2311362,2.953931096,-1.125528831,-1.496832547,-12.03792771,-14.35620067,-15.38065624,-3.986793002,-3.296193933,-0.839988965,2.06812314,-5.5372018,-8.646036239,-4.610976915,-1.087071968,-1.340380756
2.734573995,0.790191692,0.451927594,-13.79658702,2.326896283,-1.519347837,-0.656836469,-12.12908909,-15.73100589,-14.44056168,-3.795327429,-4.070959963,1.258472297,3.118897245,-8.794209665,-6.2235561,-5.33859533,0.686218707,-0.95031001
1.670788119,1.448942176,-0.068495701,-16.01661204,2.240028342,-1.954021112,0.125720815,-11.86286719,-12.80470551,-12.21350701,-4.646714382,-4.878774307,1.916938703,3.662784917,-10.37478022,-4.84238848,-5.570282923,1.168004194,-1.654077816
1.324532528,0.888701825,0.78006176,-16.49863566,3.309989517,-2.167826004,0.277362895,-11.83697743,-6.831731814,-9.913306361,-6.926854678,-5.605055763,0.58451945,2.94485346,-9.946000378,-4.577609676,-5.163407893,0.362537957,-2.570450063
2.272343923,-0.520227443,2.32630143,-8.598020644,5.162711652,-2.094794863,-0.290508052,-12.37172843,-1.264222195,-8.80997512,-9.691279573,-6.410839583,-2.008006478,0.790846384,-8.293962197,-4.711662992,-4.332323704,-1.025273057,-2.846183015
3.80523303,-2.325979929,2.710166244,6.264184324,6.745759339,-1.810043346,-1.00630255,-13.02073453,0.538767275,-9.21899041,-11.17077818,-7.454780074,-4.320251834,-2.229158383,-6.605521985,-4.645976099,-3.576707269,-2.139726021,-2.325379415
4.444408696,-4.112717052,0.603339447,19.88736613,7.079561276,-1.380761443,-1.002840485,-12.71864162,-2.375513164,-10.29576023,-10.02664075,-8.618114352,-5.053565876,-5.107110942,-5.686912283,-4.645803708,-3.353777611,-2.57583624,-1.583971541
3.069701455,-5.515141823,-3.444850053,24.57403385,5.899955405,-0.787297219,0.254035647,-10.51356753,-7.887434702,-10.73477401,-6.365237033,-9.52986333,-4.006146402,-6.96355089,-5.639856718,-5.665383933,-3.746398557,-2.61342041,-1.342402737
-0.180906192,-6.253681102,-7.218832007,19.54617771,3.767323364,0.010684885,2.555917238,-6.350636156,-12.26327781,-9.76037951,-1.719214471,-9.890469632,-2.130228199,-7.502917837,-6.081512905,-8.334391837,-4.407105116,-2.931929514,-1.801388837
-3.935815397,-6.238385708,-8.472702714,10.7530452,1.62682805,0.940567994,5.057912405,-1.310582257,-12.68071549,-7.640849098,1.961784354,-9.78828662,-0.807826314,-7.086139807,-6.597766619,-12.00923743,-4.842309085,-4.03558255,-2.488380941
-6.53228835,-5.652203186,-6.653471394,4.637314487,0.18099366,1.765944518,6.788640563,2.893383131,-9.035788803,-5.417228601,3.501389112,-9.694321771,-0.926939877,-6.420432535,-7.044650317,-14.84505467,-4.814285084,-5.828030331,-2.727536133
-7.157431043,-4.886637074,-3.295694609,2.032966665,-0.483126639,2.196096779,7.168058614,4.822531829,-3.829726029,-4.163710263,2.986672073,-10.11760704,-2.422949825,-6.106132873,-7.537298637,-15.01691211,-4.525625087,-7.651913225,-2.283618056
-6.315513097,-4.316374259,-0.774457589,-1.912867311,-0.804660922,2.082556931,6.194326772,4.028922915,-0.338771758,-4.364914816,1.319930867,-11.2198187,-4.52601043,-6.330238208,-8.23963932,-12.18758343,-4.418735175,-8.746403353,-1.583548092
-5.28712364,-4.057050775,-0.45172074,-11.77578304,-1.331855635,1.538307194,4.272532807,1.17323664,-0.430864517,-5.763548537,-0.632206718,-12.71905561,-6.401618166,-6.851367216,-9.165781215,-7.987121581,-4.742653623,-8.758230928,-1.314401765
-5.043158498,-3.893970402,-1.718942283,-25.77085698,-2.306566894,0.868264579,1.929192534,-2.425710124,-3.505277694,-7.601961489,-2.515772745,-14.13365033,-7.636239408,-7.213426222,-10.10845156,-4.981841099,-5.246962837,-7.916676238,-1.771028143
-5.490476039,-3.445882942,-2.660110549,-35.82008374,-3.519179478,0.35436688,-0.340041756,-5.446645135,-7.122140643,-8.96447444,-4.275442107,-15.10447759,-8.251955573,-7.007976489,-10.67550705,-4.825315718,-5.278289771,-6.76415947,-2.557524592
-5.629059644,-2.441077742,-1.714386968,-34.29640991,-4.477100416,0.062438676,-2.065962194,-7.050379637,-8.709378272,-9.048397345,-5.632849564,-15.49439585,-8.3836163,-6.035418563,-10.38230175,-7.001435094,-4.237544239,-5.689727567,-2.924512944
-4.449492717,-0.897540439,1.064179385,-21.40419856,-4.724839304,-0.17586796,-2.820561704,-7.04725965,-7.127394115,-7.412299133,-5.923426163,-15.22770732,-8.011287766,-4.329908765,-8.802056901,-9.167910329,-2.059246329,-4.655114437,-2.441552066
-1.815719196,0.912975518,4.149169104,-6.024051249,-4.09785425,-0.594078516,-2.390435052,-5.826447989,-3.153593381,-4.263813475,-4.565671957,-14.12405403,-7.006187267,-2.10313084,-5.793610618,-8.880297042,0.660005442,-3.323296865,-1.392085741
1.372768374,2.658767617,5.882660237,1.458686084,-2.781073392,-1.273953623,-1.014923088,-4.173047195,1.225864511,-0.630775874,-1.747953188,-11.99025181,-5.385443294,0.330242917,-1.734234555,-5.400735477,2.996826019,-1.454749758,-0.524126738
3.832125336,4.130363918,5.838037265,-1.697511595,-1.179448307,-2.056304,0.580706948,-3.013154527,4.099719171,1.895371448,1.397474103,-8.935728991,-3.445623859,2.627147522,2.430389207,-0.234487584,4.262795246,0.783164433,-0.374002087
4.801586056,5.283095481,5.077152996,-7.861267443,0.300120935,-2.650137837,1.525663119,-3.080905021,4.666660888,1.951217699,3.464067473,-5.575120849,-1.577755294,4.499041778,5.480746109,3.969042085,4.388899247,2.862762837,-0.773417506
4.491506571,6.150025028,5.149717668,-5.762558535,1.436516901,-2.852780294,1.355777788,-4.586744462,3.4992262,-0.658626854,3.824656769,-2.812686379,0.074324733,5.787958229,6.49813731,5.269159584,3.870298854,4.255340693,-0.991884085
3.781392338,6.735423066,6.728801712,8.83085521,2.263148309,-2.710175973,0.354278235,-7.08342416,2.011956082,-4.59758092,3.153030105,-1.287982698,1.729128653,6.484861409,5.383075938,3.641351351,3.33960148,4.789506364,-0.395652831
3.491591173,6.9811319,9.027073635,28.05648413,2.984199829,-2.498343852,-0.652065025,-9.692400566,1.500740427,-7.688322726,2.851219815,-0.945660811,3.642059079,6.654060105,2.923084306,0.715081147,3.09838654,4.697515642,0.964372423
3.838273975,6.804166409,10.43594895,37.59791821,3.776507226,-2.544224925,-0.950229824,-11.61638195,2.282842233,-8.362244016,3.75107023,-1.165634894,5.568817628,6.304313533,0.291599195,-1.623610831,2.939821912,4.312791317,2.363681462
4.441827358,6.142096823,9.810752135,28.69976648,4.588722641,-3.015957084,-0.543509371,-12.60012449,3.410918762,-6.85440834,5.177188414,-1.405832887,6.556489005,5.321305836,-1.70277208,-2.616825871,2.359411559,3.693976631,3.0051552
4.756991649,4.970499773,7.342323835,6.20139852,5.081129284,-3.820108922,-0.168825358,-12.97556162,3.184998123,-5.143991465,5.287524134,-1.783246359,5.434405007,3.559896171,-3.057691193,-2.981467273,0.971518671,2.531429989,2.671718089
4.485236258,3.323737294,4.361255511,-14.78352519,4.789635215,-4.65679413,-0.647454614,-13.22814793,0.277754325,-5.51083709,2.598202928,-2.977122514,1.795477692,1.06943168,-4.350786115,-4.070525607,-1.168956876,0.462867267,1.851346875
3.650719147,1.360052077,2.315476149,-21.16330649,3.450277353,-5.180121799,-2.066780307,-13.43307798,-5.137527116,-8.691318253,-2.455143905,-5.410704684,-3.272775601,-1.719191791,-6.013086697,-6.597561672,-3.538168538,-2.432077831,1.240423416
2.397959561,-0.564063969,1.782994832,-12.6905796,1.275591841,-5.163688247,-3.500711421,-13.06761158,-11.03173308,-13.05606675,-7.261736708,-8.398943228,-7.430486626,-4.044883894,-7.704770191,-9.919404837,-5.39268343,-5.378050183,1.10004049
0.816622482,-1.923927338,2.258745869,-1.767980744,-1.043391045,-4.592671036,-3.591535784,-11.42294052,-14.3765482,-15.55280909,-8.515294731,-10.15215092,-8.367405267,-5.15895188,-8.35766808,-12.37102503,-6.122150132,-7.165562175,1.068981667
-1.005399024,-2.242370392,2.764228211,-2.124882458,-2.673266209,-3.656898258,-1.609501761,-8.313509176,-12.88624151,-13.8179791,-4.501813588,-8.906775148,-5.350888646,-4.776563803,-6.928716409,-12.36133992,-5.515646033,-6.822362218,0.603428781
-2.813170094,-1.41447964,2.684926327,-16.12014859,-3.12543808,-2.660564958,1.843250059,-4.463415143,-6.594256664,-7.909639163,3.460451365,-4.450541127,0.081081424,-3.318510679,-3.310412271,-9.458728695,-3.843983525,-4.262517739,-0.386603457
-4.186881982,0.090210662,2.149392965,-31.96764925,-2.558810534,-1.885017112,5.103815187,-1.15599203,1.875349966,-0.34560534,11.56573044,1.217693212,4.906197413,-1.724089423,1.333392162,-4.783861939,-1.760598627,-0.460270716,-1.340225977
-4.835230038,1.36545132,1.727204589,-33.74721172,-1.65766879,-1.456931345,6.564289934,0.658728534,8.717156054,5.595172125,15.77192641,4.848631326,6.467399397,-0.909144245,5.124829277,-0.510465027,-0.071415193,2.999295134,-1.52720145
-4.948960908,1.541437986,1.799548398,-15.80399584,-1.143004505,-1.288887174,5.806122751,1.094082063,11.23199783,8.028783166,14.23412428,4.036494655,4.151562217,-1.219139621,6.55475013,1.222392696,0.564384811,4.731375325,-0.794888819
-5.217057253,0.314808357,2.173954253,11.07810743,-1.260906681,-1.147513332,3.866524871,1.245254963,9.463394689,7.485161031,8.266353002,-1.043215736,-0.281937641,-2.261178127,5.317771843,-0.577287053,-0.081414784,4.238348321,0.136752324
-6.344917929,-1.834581006,2.251179562,27.58672762,-1.631536117,-0.840675778,2.407688235,2.278908641,6.007997406,6.127170946,1.251474771,-7.625059752,-3.965093859,-3.239659734,2.329894996,-5.160156144,-1.657943413,2.08833622,0.193841581
-8.383418586,-3.913016825,1.578655071,21.62421232,-1.582363515,-0.419943346,2.426366284,4.387933055,4.098736258,5.919058342,-3.629346607,-12.20226355,-4.875927311,-3.549575315,-1.004636174,-10.28127378,-3.34059923,-0.466122216,-1.090535022
-10.44763823,-4.99178203,0.331257498,-1.375281089,-0.716180046,-0.241386687,3.517620349,6.485526922,5.331948031,7.240651748,-5.228406538,-12.92531047,-3.090451302,-3.185223667,-3.66942908,-13.25754255,-4.208408458,-2.158823598,-3.00661229
-11.17494453,-4.696560916,-0.662653192,-22.50560665,0.729947727,-0.787878979,4.273369361,6.962932989,8.687976388,8.957184499,-4.663831609,-10.77379594,-0.478574445,-2.664246325,-5.430311383,-12.39777298,-3.74264058,-2.288061371,-4.068245773
-9.679954039,-3.298675284,-0.39360896,-24.67496502,2.029631106,-2.321175127,3.489601379,4.970176477,11.51910157,9.694604536,-4.030913669,-8.640890159,0.84275387,-2.54702522,-6.599147609,-8.058285867,-2.170071269,-0.946182899,-3.162451413
-6.298128214,-1.424595494,1.649860824,-6.403971184,2.523303395,-4.591974712,1.204469239,1.210098771,11.68123191,9.114489357,-4.718885317,-9.073034177,0.080050669,-2.952368161,-7.54042549,-2.621359066,-0.41202918,1.1235932,-0.550351438
-2.497632669,0.319732588,5.016849498,17.37103235,2.16661383,-6.850784051,-1.276054309,-2.421858674,9.139129716,8.104987882,-6.574141131,-12.42384806,-1.821111472,-3.47115803,-8.409633326,0.773787431,0.382603735,2.894244799,2.134020133
0.043863226,1.514809743,8.351810588,28.01620969,1.645608355,-8.221979016,-2.391250562,-4.11460686,5.849319696,7.834759297,-8.355703343,-16.79843035,-3.155302724,-3.551420845,-9.266397626,0.108745932,-0.527007015,3.458352237,2.970795649
0.539297224,1.851349009,10.00864318,18.60777214,1.954698996,-8.234724911,-1.562888533,-3.358883041,4.128318965,8.622006875,-8.920293379,-19.70539359,-2.97629589,-3.031875577,-10.27357393,-4.211022508,-3.048751133,2.336311781,1.131664866
-0.447298638,1.041361172,8.948467224,-0.870409835,3.733085766,-7.14988953,0.342391781,-1.168841103,4.900145201,9.679741607,-8.124914044,-19.99524518,-1.904263061,-2.362406883,-11.61721055,-9.588445328,-6.308194175,-0.375343489,-2.508784121
-1.508770091,-1.053666754,5.439167552,-12.58142962,6.82572155,-5.824548686,1.70337466,0.831840159,7.227139255,9.952751848,-6.801928281,-18.52540609,-1.569316861,-2.293368048,-13.14011371,-12.97356515,-9.142671223,-4.043990566,-5.999475009
-1.457478947,-4.118991318,1.09165524,-6.122785562,10.35535042,-5.16919645,1.439918484,1.69403704,9.386207712,9.242044881,-5.957962808,-17.12762417,-3.150767031,-3.253665939,-14.10317811,-12.96364503,-10.72687536,-7.72851802,-7.687831384
-0.130658025,-7.22680997,-1.922042376,12.9367725,13.2171643,-5.555889547,-0.118567875,1.760957304,10.44249057,8.535788108,-5.918025289,-16.88259726,-6.211184851,-4.914690042,-13.50399775,-10.74416797,-10.94645812,-10.53374879,-7.29278971
1.62194932,-9.124276544,-2.119540881,28.11935584,14.63209177,-6.592522429,-1.484345015,2.161953559,10.90471432,9.177202783,-6.086771863,-17.22985934,-8.808139485,-6.317504674,-10.89348301,-9.113422734,-10.31736126,-11.9520345,-5.902740652
2.662822671,-8.919658252,0.322736273,25.88967203,14.41322512,-7.428065248,-1.187596606,3.664018513,11.91643252,11.56495409,-5.455888524,-16.64811665,-8.864039154,-6.506324394,-7.055363934,-10.2540775,-9.550210639,-12.02077199,-4.991357144
2.377921164,-6.71156179,3.590996793,6.40280177,12.86120396,-7.371061879,1.042501489,5.87890909,13.77595293,14.55113203,-3.421372994,-14.24240074,-5.771931634,-5.204116953,-3.832236849,-13.92121608,-9.072544205,-11.19920449,-5.28470465
0.974936721,-3.63116835,5.37440564,-17.45816882,10.47464003,-6.375056947,4.008335706,7.496975095,15.21213701,16.14720892,-0.298604002,-10.78095649,-0.996997448,-3.015444758,-2.988499717,-17.47144842,-8.812432562,-10.0295529,-6.349852067
-0.83928568,-1.153404478,4.454179804,-31.02931127,7.730750059,-5.046045836,5.888016178,7.339032856,14.20642284,15.03580012,2.801911132,-8.212807757,2.827058579,-0.995819239,-4.853710885,-17.77602043,-8.342548621,-8.792478583,-7.12948408
-2.412410868,-0.108239909,1.641812039,-28.90580825,5.041608869,-4.183610236,5.542747293,5.332066204,9.776852527,11.67069845,4.614729615,-8.036782037,3.677089728,0.089722975,-7.840336964,-13.58651586,-7.239858812,-7.380983335,-6.88655882
-3.452579398,-0.114863401,-0.682727883,-17.03701035,2.790618779,-4.208171088,3.306185328,2.592422724,3.213155057,8.047016816,4.443228887,-9.924694023,1.505896303,0.263588646,-9.375878678,-6.530022807,-5.397786948,-5.472689868,-5.764168882
-3.942027622,0.106522602,-0.207017378,-5.362139267,1.291612461,-4.895421856,0.695787209,0.558505805,-2.402285806,6.290327871,2.539050977,-11.83036205,-1.790099779,0.231116857,-7.689068335,0.049307015,-3.096424181,-2.872153033,-4.567525142
-3.908852669,1.742027505,3.634741884,1.31108684,0.632667148,-5.592499399,-0.69570544,-0.097547302,-4.183972768,7.157035685,-0.044692567,-11.57552881,-3.756850693,0.783881605,-3.128675721,3.510569896,-0.821862016,0.226146928,-4.046082512
-3.384574349,4.935440013,9.17734736,5.807002246,0.537640747,-5.727474033,-0.290641004,0.108579858,-1.474149446,9.585767215,-2.010307595,-8.6409429,-3.103893787,2.184644361,2.043779238,3.725302378,1.009852079,3.245124269,-4.321086897
-2.59220906,8.586390339,13.62471642,13.03747313,0.425023085,-5.222673562,1.167497191,0.023789965,3.657001123,11.5812523,-2.472917002,-4.677814232,-0.534894169,3.992638128,5.292034645,2.90274194,2.230552825,5.498210282,-4.901133244
-2.083460048,11.03531964,14.93220395,22.7545222,-0.292033945,-4.522820381,2.23947814,-1.125680225,7.850283445,11.67995654,-1.380483865,-2.282025204,1.856740174,5.42447448,5.634025947,3.637761411,2.902375954,6.537328524,-5.187719355
-2.530345442,11.11644018,13.06753618,28.2670322,-1.827453801,-4.252385902,1.827962944,-3.110761223,8.752589514,9.874031126,0.516906049,-2.991590029,2.133617762,5.936789311,4.237176747,6.774726314,3.156856112,6.344189466,-4.981813294
-4.217050465,8.819841923,9.739071377,22.64935754,-3.826312564,-4.778956051,-0.120264183,-4.951720895,6.462756101,7.399053286,2.134616489,-6.103501308,-0.123427826,5.580888839,3.323444438,10.76908302,3.037697046,5.260236425,-4.569655415
-6.646949479,5.148180863,6.892050526,6.372260752,-5.508948804,-5.991261749,-2.673867056,-5.771894112,3.139719637,5.714754362,2.701714037,-9.240881454,-3.563728114,4.898225574,4.284989193,12.97856841,2.473875938,3.738543283,-4.379517169
-8.691438339,1.376082609,5.228326367,-11.4440347,-6.083677778,-7.407403566,-4.59300619,-5.497342861,1.222216749,5.549679984,2.202720313,-10.19287597,-6.025192001,4.494137208,6.546194122,11.7691764,1.395937665,2.105081587,-4.568250319
-9.292023601,-1.684198967,3.922348,-20.05762928,-5.175337447,-8.485106815,-5.091413464,-4.829586691,1.702790001,6.661638716,1.316415103,-8.553817171,-5.974317296,4.643091722,8.08559075,7.729978745,-0.112959799,0.470033786,-4.909156772
-8.225493085,-3.92057834,1.664062264,-16.28335011,-3.013250478,-8.898344104,-4.191777845,-4.571686586,3.704356629,8.279876709,0.862754789,-5.897508753,-3.443302123,5.193537953,7.158601005,3.092256791,-1.776959569,-1.209220167,-5.042988497
-6.312742602,-5.638151998,-1.957267519,-7.185867893,-0.285453931,-8.625317664,-2.53912826,-4.928366437,5.477420521,9.685442313,1.121327505,-4.428598908,0.089896093,5.765725091,3.777703846,-0.067411858,-3.263613574,-3.017434958,-4.82866683
-4.852120783,-7.125072056,-5.959099735,-3.322314485,2.23092768,-7.859739285,-0.906560505,-5.375010047,5.846363307,10.4516508,1.526112296,-5.248988103,2.688309361,6.022096265,-0.270311582,-1.327028492,-4.415477282,-5.017899478,-4.473967482
-4.678983248,-8.448058615,-8.769151209,-8.410724973,4.043985912,-6.863815686,0.240714377,-5.157529509,4.937949063,10.33884323,1.02247538,-7.606789904,3.099202779,5.800526009,-2.853795024,-1.952235616,-5.394060012,-7.236822527,-4.354652622
-5.571589228,-9.544774439,-9.571460112,-15.09667709,5.136539345,-5.864326848,0.889993847,-3.93901069,3.772478361,9.197999476,-1.098483688,-9.627473936,1.355436223,5.082515258,-3.152145113,-3.559261292,-6.584850125,-9.625586807,-4.707585603
-6.457482413,-10.37926395,-8.961745784,-11.38197149,5.899727195,-5.008898552,1.337686203,-2.025661252,3.266779293,7.136451203,-4.468053387,-9.822731782,-1.418528299,3.924558563,-2.15869867,-6.60551437,-8.277246913,-11.96236467,-5.460734914
-6.237323262,-10.92228654,-8.308381761,7.46322912,6.864617793,-4.347621128,1.918536258,-0.026174408,3.569425476,4.781196915,-7.592849617,-8.121118863,-3.738677586,2.466501737,-1.656243259,-9.953692812,-10.32326336,-13.76150739,-6.303136714
-4.566243796,-10.98089936,-8.396400359,32.27082,8.366774051,-3.825415348,2.780148574,1.682127192,4.198184044,3.217067904,-8.63625126,-5.664649724,-4.530914596,0.985729303,-2.59026987,-11.784509,-12.04485709,-14.32705844,-6.881791903
-2.008295253,-10.13484445,-8.609629259,45.42092539,10.30485082,-3.313517955,3.798204928,3.163827393,4.674478966,3.400157646,-6.579432093,-3.685099593,-3.542952412,-0.136127459,-4.248735659,-11.01444697,-12.52440838,-13.02130306,-6.945290333
0.476045883,-7.979008751,-7.457463458,34.69811313,12.12439113,-2.701207409,4.64667467,4.641032033,4.965484409,5.382930953,-1.995150949,-2.496701099,-1.295475402,-0.600256422,-4.926643414,-8.039347351,-11.14604012,-9.645134367,-6.368962308
2.214660263,-4.557018777,-4.050718253,4.060707784,13.0655719,-2.00287219,4.985084685,6.036501079,5.341459635,8.015434441,3.12545623,-1.447204864,1.281796949,-0.416267722,-3.457812061,-4.284543907,-8.043703163,-4.684823213,-5.142833178
3.111457499,-0.608400163,0.76699062,-28.21869449,12.57300347,-1.382985809,4.683410323,6.84085413,5.883692607,9.526623653,6.444437985,0.21832955,3.297506716,0.054551179,-0.261351458,-1.065623498,-4.127926081,0.788168834,-3.416438977
3.38476102,2.67403342,4.703777042,-43.13705735,10.64315443,-1.040396446,3.966290348,6.48918237,6.217345213,8.689668513,6.602948988,2.418970637,4.243977533,0.349810415,2.997117745,1.233667751,-0.625749905,5.560204237,-1.567617586
3.114043884,4.291455896,5.605486455,-35.30060429,7.878031193,-1.015313832,3.359810126,4.925620316,5.790099828,5.723044272,3.981271929,4.094992144,4.139581039,0.301686574,4.801642156,3.050886323,1.593007079,8.805866374,-0.152281624
2.092534812,4.035868623,3.091746585,-16.17167001,5.170474951,-1.082051874,3.411836953,2.810918043,4.444316308,2.192870759,0.427713508,4.01087125,3.438595875,0.249790863,4.991635644,4.855888171,2.463206859,10.36882599,0.349801448
0.14287247,2.576468125,-1.103706633,-3.640722923,3.19334606,-0.857462152,4.312248231,1.114343393,2.703895247,-0.070791521,-1.867679485,1.822525594,2.748757421,0.838657033,4.72089405,6.498044049,2.648538143,10.62930855,-0.124949502
-2.434853005,0.969386501,-4.383783737,-6.884190675,2.028331356,-0.087486571,5.65816056,0.38608912,1.437096489,-0.242229976,-1.666887985,-1.506861488,2.480692366,2.497992919,5.239262876,7.298382816,3.008272608,10.10084615,-1.07085727
-4.783418726,-0.012447571,-5.119896286,-19.34522957,1.20287309,1.097198698,6.573422132,0.329339557,1.142362927,1.015939906,0.620709875,-4.311799751,2.614562662,5.002924063,6.62508604,6.764365121,3.992435359,9.095548103,-1.643962498
-5.960121222,-0.208103523,-3.608054736,-25.53370739,0.121759663,2.181895677,6.181530558,0.072128144,1.487459965,2.206808642,3.234238533,-5.370560856,2.736489775,7.502954246,7.646153217,5.228634995,5.387639365,7.715275516,-1.187776075
-5.619907087,0.137223042,-1.472924432,-15.38382401,-1.418733505,2.570480258,4.172813547,-1.053582324,1.548032872,2.241313525,4.160043055,-4.676675418,2.346812543,9.059039089,6.914640313,3.788685627,6.560415297,6.12356288,0.302428353
-4.323832884,0.820708569,-0.158584251,6.494404927,-3.02256378,1.990345142,1.094575452,-2.873178932,0.592960058,1.26831601,2.388464445,-3.248664453,1.253280225,9.304232327,4.317057289,3.548869731,6.969704327,4.782349572,2.135029182
-3.160445191,1.883807619,0.14794883,24.67558822,-3.953370846,0.695361178,-1.862768726,-4.42752067,-1.220502767,0.46005306,-1.407696212,-2.191923329,-0.222911355,8.70372385,1.398770092,4.768889657,6.535243939,4.342621452,3.358760088
-2.940542643,3.357500443,0.303106507,26.33072132,-3.658908393,-0.698601134,-3.486789634,-4.706880638,-2.822860168,0.987409993,-5.193593295,-1.826551782,-1.393110249,8.179423509,0.256422981,6.592817282,5.59262123,5.180625748,3.374002645
-3.601290823,4.840479436,1.057033615,12.30343631,-2.147220107,-1.627704419,-3.194809014,-3.463058103,-2.91753676,3.059319312,-6.748479601,-1.603892128,-1.620556873,8.370282287,1.801319931,7.551724298,4.515232933,6.930842697,2.275316316
-4.299122777,5.438985225,2.1540824,-3.870733914,0.075236557,-1.927920003,-1.310208377,-1.424056967,-0.85367014,5.795358267,-5.03512676,-0.843808732,-0.730425447,9.110985535,4.86379575,6.445808991,3.35228659,8.465006416,0.695004853
-4.10719413,4.310909112,2.581631847,-8.040361017,2.429827247,-1.856749748,1.193435656,0.2682165,2.94658271,7.969929802,-0.925861247,0.383128247,0.874970061,9.557591805,6.96204966,2.999277152,1.804137282,8.476614733,-0.69308926
-2.741125564,1.464594599,1.73592273,2.126984266,4.68096377,-1.797389819,3.284998302,0.924843097,7.247963554,8.94741073,3.229544781,1.04162087,2.471179038,8.875886137,6.182520162,-2.052100945,-0.439309287,6.347865718,-1.60459202
-0.733074327,-1.897764015,0.34923723,15.36681248,6.984003182,-1.910829232,4.405738331,0.756848755,10.66695743,9.020657411,5.016598426,-0.149966364,3.445846161,6.947649453,2.672030433,-7.341947794,-3.286484118,2.684572552,-2.197196168
1.046509487,-3.948681061,0.171692788,17.27373086,9.538687663,-2.0298187,4.618224651,0.541601005,12.24306535,8.928201466,3.503934805,-3.595617171,3.60321869,4.522956597,-1.468482791,-11.3993995,-6.120845095,-0.929205533,-2.767443797
2.075513856,-3.447453372,2.52208033,3.720808125,12.17874754,-1.866034792,4.347588755,0.8178052,11.63111912,9.046028115,-0.102723451,-8.210296972,3.148158639,2.685037855,-3.806608801,-13.09486068,-8.100521249,-2.865598446,-3.401280834
2.485216614,-0.720635949,6.918374474,-14.74420305,14.29895415,-1.323153022,3.967667901,1.322131587,9.004070799,9.003909483,-3.22151654,-11.90241747,2.413041679,2.046641853,-3.415047399,-11.98126944,-8.673848304,-2.467081802,-3.890162129
2.756664312,2.402407439,11.05866051,-21.68035294,15.23152356,-0.618868701,3.553359675,1.173365122,4.924624112,8.065285698,-3.65093985,-12.90811346,1.575924495,2.313773887,-1.475603008,-8.542941537,-7.927824306,-0.440039645,-3.960850529
3.123941271,3.760984426,12.33452819,-9.297625543,14.77786102,-0.097918244,2.949968904,-0.33283307,0.294535513,5.914703478,-1.154512039,-11.05109071,0.59259363,2.557341824,-0.231191602,-4.217197372,-6.514344577,1.645499991,-3.582263635
3.248346782,2.331846236,9.735196139,13.87485767,13.43589493,0.092963569,2.04955006,-2.988626488,-3.753081193,3.130718606,2.272259067,-7.986518447,-0.636446293,1.967550722,-1.191863342,-0.971336837,-5.22065823,2.388376002,-3.05487986
2.474535042,-1.094545529,4.598920508,29.13154667,12.09613445,0.158999732,1.015281096,-5.639756717,-6.18356591,0.895186343,3.733692344,-6.175640702,-2.044234154,0.489692542,-4.037247726,-0.425069827,-4.505666654,1.394577136,-2.794648588
0.455728419,-4.546404027,-0.425859712,22.7244781,11.4236589,0.474964992,0.258294865,-6.925494122,-6.534079986,0.152837512,1.497815842,-7.242462019,-3.335875287,-1.148282551,-7.011693889,-2.920437508,-4.319048723,-0.628976229,-2.999870134
-2.401401478,-6.329439902,-3.375619602,-2.55890849,11.41818045,1.207517698,0.18045334,-6.230480253,-5.191218651,0.910520632,-3.667242321,-10.83326879,-4.151769168,-2.01024141,-8.373382799,-7.18029122,-4.280656242,-2.506886607,-3.491346892
-5.082807962,-6.196428747,-4.297470758,-29.04462931,11.50550012,2.080358983,0.881922365,-4.108040935,-3.171386229,2.251657793,-8.890422084,-14.7882392,-4.320964269,-1.653373044,-7.672937884,-10.94002739,-4.030712929,-3.421794928,-3.862594233
-6.623715542,-5.353300827,-4.848658854,-37.74658624,11.07129517,2.52185615,2.056906535,-1.854215285,-1.475809994,3.04834241,-11.10726915,-16.54788254,-3.993067579,-0.412661991,-5.898617318,-12.27208719,-3.474792435,-3.329537228,-3.811686148
-6.769767396,-5.352765631,-6.567782977,-22.82050078,9.979677179,2.110845127,3.157819638,-0.578618861,-0.484304229,2.791310909,-9.145074545,-14.86611413,-3.541088684,0.912549125,-4.527434255,-10.74761016,-2.781472519,-2.746531095,-3.380226282
-6.127927349,-6.793475043,-9.327898731,4.576773676,8.643725717,0.961943376,3.71409024,-0.491374492,0.125528404,1.890809998,-4.490924487,-10.67505667,-3.315846332,1.673576834,-4.376085358,-7.607203368,-2.203587572,-2.200102692,-2.913053176
-5.696804512,-8.861344477,-11.31379161,25.54665438,7.613009546,-0.287500161,3.59019559,-0.919932088,0.871032471,1.259591028,-0.200352802,-6.505166316,-3.442989098,1.791145587,-5.170593173,-4.801327775,-1.902416968,-1.843949502,-2.785035634
-6.143781075,-10.0406915,-10.5644355,27.78039617,7.066459098,-0.911714676,3.022751788,-0.976665987,1.829518637,1.566670083,1.237312974,-4.832867489,-3.800012353,1.691789175,-6.02767636,-3.606753438,-1.892059305,-1.515316897,-3.117290024
-7.366883842,-9.374478664,-6.785795419,13.48248098,6.674819039,-0.622501595,2.435897751,-0.307108881,2.476420975,2.768702958,-0.481595479,-6.451895695,-4.151541255,1.890279326,-6.265598706,-3.849209828,-2.081003988,-1.080439865,-3.69024583
-8.630771273,-7.23315841,-1.886509697,-4.521539746,5.956558125,0.23334867,2.177540633,0.662260431,2.187844483,4.237885969,-3.498336949,-9.953660807,-4.300877375,2.60479698,-5.80199046,-4.279421718,-2.315706004,-0.670255569,-4.091870068
-9.123523052,-4.983157373,1.276909631,-13.98768128,4.795891208,0.968536005,2.350050995,1.117060241,0.973192248,5.29455914,-5.32816493,-12.66153167,-4.133973272,3.697969871,-4.906367773,-3.734302951,-2.383853949,-0.553640605,-3.970657509
