Channel 1 - P4,Channel 2 - O2,Channel 3 - P8,Channel 4 - T8,Channel 5 - C4,Channel 6 - Cz,Channel 7 - Fz,Channel 8 - F4,Channel 9 - Fp2,Channel 10 - F8,Channel 11 - Fp1,Channel 12 - F7,Channel 13 - F3,Channel 14 - C3,Channel 15 - T7,Channel 16 - P7,Channel 17 - P3,Channel 18 - O1,Channel 19 - Pz
40.84731313,24.34338559,15.03283884,23.14653363,15.59423096,2.869916796,-3.965205148,3.149324946,-11.69296871,-12.28045832,-8.048662771,18.85083165,5.29206029,29.19101319,6.015979397,13.55320713,55.535843,65.33559243,1.330884091
23.88244255,12.33862465,-2.161564673,15.3539871,-5.350040734,-11.81657332,-21.17520181,-18.98866045,-36.63534835,-35.00973328,-33.23987114,-2.43439139,-16.8124248,9.208832568,-11.39826373,-4.144071461,34.13772361,49.23448915,-11.10111359
-0.300534507,-1.523691303,-15.81904851,-0.903237686,-21.49451077,-20.27701856,-26.89946883,-28.11784618,-41.42211185,-41.40497093,-37.79900675,-15.06576643,-27.72503511,-9.56193162,-19.20713423,-16.94029886,1.593423904,19.89573982,-17.59131236
-18.02111632,-9.130852088,-18.53146192,-18.79239973,-24.77386137,-18.25368476,-20.35188041,-22.48485255,-29.1628865,-32.0520061,-24.60740602,-13.47527057,-24.11645199,-17.29183419,-14.53511147,-17.93316203,-23.75644325,-5.200667424,-14.30850787
-21.33286232,-7.516550964,-10.89364236,-31.23508936,-15.8727819,-8.64631872,-8.20725314,-9.34612553,-12.20316174,-16.6754271,-6.124390191,-1.589746417,-11.66220363,-12.14808383,-2.821509916,-8.353432161,-30.06305249,-13.58058525,-4.449699434
-12.60959051,-0.31791833,-0.399606597,-34.59963617,-2.952076774,0.993492861,0.675806714,0.950066473,-2.98955035,-6.680139506,4.787910679,10.76906895,-0.252760271,-0.649336783,6.552020151,3.838892265,-19.10764727,-5.466559625,4.513374801
-1.43098609,5.715007155,4.734356949,-29.67480472,4.813497625,4.209490172,1.587738394,2.464190484,-5.736876628,-7.152331518,3.386375961,15.36421609,3.247858713,7.87596691,7.282472689,10.12256889,-3.257303442,8.232499498,6.649575834
3.304857174,6.167568018,1.828695036,-20.0363693,3.767110079,0.135814776,-3.369795281,-2.887375838,-14.8675927,-14.27292568,-5.139015497,11.11661185,-0.772180275,8.197155794,0.402181715,7.456415417,4.696968869,15.32298208,1.831012776
-0.262437078,2.040446501,-4.750155167,-9.559870735,-2.462145842,-6.561134929,-7.917259775,-8.093136506,-20.72377448,-19.60106731,-11.18512499,3.817281772,-6.25909436,2.238898954,-7.303250764,-0.307992647,0.655239027,11.40813438,-4.745128422
-6.743013387,-1.731660869,-7.693000579,-0.791675975,-6.81179951,-9.885268691,-7.005766036,-7.270477535,-17.54124557,-17.31393784,-8.70097675,0.766349932,-7.067367864,-3.568190888,-9.115066486,-6.27257892,-9.375544698,1.84792419,-7.075248762
-8.903091858,-0.768283807,-2.863226363,5.33285709,-4.754690794,-7.27377177,-0.593059417,-0.210263818,-7.416952427,-8.527541809,0.640162306,4.919420609,-1.835887112,-3.971566149,-3.625766253,-6.12550316,-15.69502716,-4.078420302,-3.081401903
-3.851705389,5.097517084,7.539932032,9.015971744,2.429158439,-1.184511964,6.928701889,8.092112148,2.303104777,0.377020815,9.757557361,13.07484362,5.510493874,1.12469286,4.646994064,-1.02347833,-13.22791861,-1.32822346,4.163725196
4.967782125,11.88397716,17.06005186,11.07048674,9.33153014,3.42063542,10.70494059,11.98900691,5.409635457,3.475988394,12.38577071,19.06836689,9.522845954,7.292122509,9.389372436,4.202346407,-4.982343911,7.196537965,9.369197888
11.12938251,14.92504581,20.2545981,12.48095194,11.18714242,3.299152531,9.270659864,9.751565266,1.517022399,0.063554881,7.883709615,18.93655294,7.793352533,9.765231984,7.682615192,5.525232777,1.508672146,13.91095745,9.396111225
10.66293671,12.66161328,16.70543195,13.85233237,7.606458042,-0.676707145,5.239156797,4.498885858,-4.475638977,-5.335645997,1.027245303,13.7683507,2.579683933,7.391972633,1.990145406,2.935234596,1.032238627,13.38440155,5.429209598
4.94890757,7.627633135,10.67515865,14.84717362,2.377967353,-4.684455697,2.650197228,1.130835222,-7.088404392,-7.282727441,-2.440475304,8.233779328,-1.51439562,3.145319158,-2.414128805,-0.131750346,-5.187003577,6.723230905,1.422107099
-1.037280231,4.016950819,7.087088842,14.18166517,-0.094959875,-5.36269013,3.515882368,2.180497779,-4.799797474,-4.11885513,-0.444491266,6.434481976,-1.516987417,1.138948027,-2.106867063,-0.287237557,-11.24208671,0.029496556,0.472355313
-3.211191216,4.081482408,7.445844623,10.60018104,1.526705529,-2.458178531,6.469540159,6.075289837,-0.702144527,0.914906475,4.325999992,8.699855429,1.680046986,2.988490633,1.747821069,2.633740006,-12.10878422,-1.285083889,2.336769874
-1.59415554,6.432648872,9.066327719,4.349890889,4.758182354,1.370675002,8.367006728,8.951789329,0.813672298,2.80857708,7.287780256,11.8106619,4.474795914,6.639534363,4.731240705,5.435650398,-7.939055796,2.819006668,4.057921411
0.311675686,7.536547497,7.966459517,-2.139367277,5.797720847,3.11003681,7.147721343,8.116869675,-1.921869886,-0.764104671,5.955952271,12.08856285,3.796536448,8.434071972,3.192824154,4.423477757,-3.516850737,7.277850944,2.887103754
-0.90784891,4.94704823,2.69017626,-5.386752864,2.91002428,1.907536841,3.404014401,4.091091445,-6.66977784,-7.511337167,1.644713643,8.509521465,-0.444052356,6.390967681,-2.573908046,-1.314500165,-3.720406106,6.630452338,-1.188703317
-5.385466967,-0.542707923,-4.263186481,-3.369226613,-2.21576672,-0.562711792,-0.507752382,-0.300209971,-9.684076797,-12.58598409,-2.226619842,3.281524538,-5.615624597,1.818239183,-8.617547042,-8.984047186,-9.18421524,-0.098112174,-5.462911608
-9.891284339,-5.575470009,-8.493835565,2.488268109,-6.086521328,-1.945442779,-2.740622208,-2.648746689,-9.253724483,-12.68262158,-3.358756396,-0.304324738,-8.799253881,-1.97631046,-10.65018931,-14.17913192,-15.8775456,-8.513008587,-6.886292995
-10.73329534,-7.010632599,-7.329956324,7.751080406,-6.38341253,-1.404133759,-3.449005593,-2.921956075,-7.113523456,-8.631800534,-2.389771259,-0.650683253,-9.101124381,-2.548081904,-7.480636633,-14.13586296,-18.70177003,-12.53083688,-4.617489459
-6.962602568,-4.381021956,-1.912779452,7.982449669,-3.689311134,-0.186961638,-4.23816666,-3.010025939,-6.565800895,-4.435866757,-1.890620641,1.144013739,-7.916681266,-0.196933603,-1.730831748,-9.498496205,-15.76789871,-9.31805967,-0.564020615
-1.124253736,-0.027088421,3.898266357,2.225887501,-0.649064942,-0.196693639,-6.261319701,-4.50573529,-9.171420113,-3.781789634,-3.698718746,2.706579755,-7.191793865,2.639513002,2.55652534,-3.385270727,-9.677165483,-1.325880495,2.401001173
2.932402467,3.021430253,6.691032968,-5.862471205,0.467618121,-2.030408588,-8.850438482,-6.911087774,-13.08558955,-7.077962553,-7.082741433,2.73799688,-7.466222306,3.7333524,3.222498083,1.18617811,-4.957241208,6.048802271,2.858615856
3.150886632,3.486022576,6.00140467,-10.41306267,-0.425245428,-4.349145501,-9.986816172,-7.955646939,-14.54660861,-11.39959763,-9.304773477,2.12460955,-7.501151316,2.975128818,1.437816456,3.296559114,-4.148306048,8.914930017,1.800529927
0.637019763,2.567109615,4.185842718,-7.61292378,-1.521743349,-5.127360938,-8.171660542,-5.715125483,-11.17668128,-13.1457048,-7.957163641,2.906571769,-5.709708424,2.224702937,0.287727861,4.111369311,-5.979489665,7.628497279,1.440649715
-1.658477223,2.533788262,4.04396809,1.483001397,-1.041188485,-3.578457847,-3.962205787,-0.579543327,-4.177014941,-11.00461815,-2.981176542,6.160305831,-1.94087403,3.406347275,1.946199744,5.263927355,-6.991994705,5.761157839,3.095004687
-1.563986839,4.584822374,6.394786903,11.87790899,1.069946592,-0.955282047,0.258392558,4.72821981,2.47821793,-6.79023302,3.293823038,10.76870157,2.098262972,6.666175834,5.922006585,7.27744335,-4.87964264,6.572183354,6.046640485
0.711639542,7.87489416,9.628451331,18.53685454,3.143928864,0.517070062,2.124046167,7.146557575,5.11834989,-3.683853042,7.96460188,14.19201621,4.197845349,10.22798217,9.725380862,9.340541583,-0.480895017,10.22459474,8.303250237
3.201110043,10.42669597,11.38887281,20.00990758,3.376430611,-0.392254238,1.160270168,5.602965682,3.101296749,-3.578267184,9.594671665,14.55486955,3.560589188,11.97684556,11.14375423,10.35461458,3.201428316,14.02397383,8.435927574
4.18451073,10.95361294,10.71587812,18.75402748,1.47684959,-2.828439065,-0.908547845,1.754522294,-1.005370743,-5.766598389,8.867312327,12.22715939,1.557530791,11.26931312,10.04058715,10.06209751,3.826836865,15.13918861,6.80545907
3.643678362,9.905211614,8.741514529,18.00588522,-1.084117013,-4.606026855,-1.648741944,-1.38813745,-3.730061675,-7.86615666,7.574439116,9.543999451,0.638023874,9.354863413,8.202069912,9.180309632,1.721472401,13.16837164,5.145478972
2.947859518,8.867550145,7.461395393,18.13319989,-2.368410147,-4.122371827,0.092518713,-1.72983558,-3.394512609,-7.943913327,7.038341908,8.911861456,2.318096856,8.111927461,7.563574556,8.546325689,-0.668415075,10.2938169,4.9858703
3.2802346,8.978933673,7.826183945,15.94327956,-1.587477761,-1.723902226,3.358336184,0.586369225,-0.997918437,-5.972970673,7.317311911,10.88351386,5.940096151,8.309571102,8.501169442,8.225155656,-1.186887164,9.093654938,6.374896596
4.415627673,9.865883328,8.905504756,7.842501342,0.370447571,0.664637375,6.020327005,3.696341256,1.163833751,-3.55784028,7.634964454,13.75519698,9.199244576,8.964320345,9.655447883,7.482712515,0.079617751,10.15748859,7.97874469
4.990746287,10.05467282,8.815526901,-5.824072084,1.860492945,1.279369727,6.5827858,5.690100123,1.644315739,-2.433657885,7.359184654,14.9462487,9.933899604,8.317330116,9.29506863,5.614229152,1.067213328,11.67297591,8.341068848
3.916807659,8.431693175,6.503560987,-19.31466984,1.920894328,0.057588993,5.295807019,5.937203736,0.810145283,-3.158713274,6.536916134,12.99504557,7.683581182,5.503335586,6.896326738,2.775843585,-0.150635115,11.23745858,7.090965716
1.514453939,5.382368138,2.772825762,-24.7904368,0.935166226,-1.377124207,3.716036229,5.084500196,-0.026470364,-5.009578107,5.611427576,8.600739006,3.825060536,1.416999516,3.551253787,-0.009922733,-3.445048565,8.131223081,5.056003798
-0.727018399,2.558597388,-0.332561773,-18.17391922,0.022056615,-1.24016464,3.219506987,4.01956131,-0.224287477,-6.903587957,4.789614444,3.996050146,0.34283482,-1.949284764,0.959991564,-1.682494554,-6.687795582,3.971644374,3.324391739
-1.516773618,1.479048222,-1.206146573,-2.866037868,-0.166408514,0.753550094,3.804614973,2.921255119,-0.527887197,-8.350020402,3.775082544,1.266005686,-1.639206305,-3.065870535,0.010399868,-2.011371445,-7.674699314,1.23318426,2.251231837
-0.936462623,2.210462221,0.033911823,12.00866747,-0.083351102,3.063577798,4.164704407,1.242871368,-2.242700401,-9.620669821,2.096772945,0.951819989,-2.405038714,-1.964970044,0.204862013,-1.690072264,-6.094880252,1.061007879,1.35672701
-0.30447118,3.294223294,1.696508521,17.84580392,-0.803950676,3.611239315,2.863529744,-1.516742616,-5.771578125,-11.19167568,-0.377811517,1.913051723,-3.020637604,-0.007220977,0.330866776,-1.595597508,-3.73663181,2.367593152,0.127596892
-0.86722783,2.978430425,1.899658179,12.56598638,-2.921973518,1.554957115,-0.449713075,-5.117539314,-10.00502972,-13.15074803,-3.292749247,2.380976789,-4.258439448,1.358484421,-0.349569092,-1.942252838,-2.788250813,2.953047269,-1.164333333
-2.562403931,0.688567957,-0.006094047,1.665141312,-5.865982819,-1.965829521,-4.767427966,-8.64063936,-13.18537593,-15.13447979,-6.116914052,1.293825642,-6.018962723,1.700571333,-1.488426806,-2.136537853,-3.839894534,1.542908529,-1.516910613
-4.026012157,-2.502362599,-3.078231896,-6.503178188,-8.245491946,-4.718285919,-8.490142157,-11.18031527,-14.41284907,-16.71396716,-8.512447416,-1.0509819,-7.596967631,1.675406673,-2.085566767,-1.452806613,-5.424452898,-1.123621606,-0.141986916
-3.844111822,-4.752167924,-5.624447446,-7.374785697,-8.8899417,-5.104011388,-10.4833308,-12.4346216,-14.33297219,-17.70310362,-10.33566678,-3.35662107,-8.362323645,2.157771165,-1.462292967,0.135218466,-5.483237662,-3.070972302,2.591924909
-1.882738847,-4.883484377,-6.43247728,-3.360945488,-7.662284612,-3.280846264,-10.5763195,-12.63901159,-14.33312442,-18.05259664,-11.32321419,-4.283355249,-8.173870042,3.335071607,0.150231536,1.773970746,-3.372774926,-2.923169593,5.178509641
0.547171237,-3.175505872,-5.415650713,-1.066576403,-5.404277417,-0.828976097,-9.27946519,-12.01264738,-15.02197856,-17.5482467,-10.93952042,-3.27327553,-7.247441094,4.59461206,1.883835906,2.388770486,-0.5583268,-1.083542325,6.06048518
1.853922645,-0.941782038,-3.346890162,-5.002124625,-3.18350004,0.625686058,-7.189857055,-10.40008355,-15.48539836,-15.8101715,-8.731278657,-0.746352063,-5.772777123,5.221644389,3.022428116,1.586828693,0.6371613,0.772787765,4.894991422
1.590465776,0.625668575,-1.132129853,-13.1855452,-1.58293736,0.605955105,-4.691631504,-7.564223232,-14.10582748,-12.7580746,-4.941939696,2.337625686,-3.747787614,5.172574284,3.54812239,-0.005285225,-0.909159864,1.341371257,2.889759506
0.826604319,1.314672296,0.692203704,-18.46830994,-0.609019264,-0.138647347,-2.100497507,-3.848796703,-10.24218782,-9.10349614,-0.710584142,5.17625189,-1.165697102,5.172317021,4.005464374,-1.245126791,-4.100087117,0.90355154,1.877327399
1.117727345,1.796432806,1.956056787,-14.62283808,-0.121315138,-0.55663312,0.118388662,-0.438596303,-5.187764527,-6.223925639,2.557733628,7.620932667,1.739651657,6.064708639,4.919222711,-1.332609446,-6.519499335,1.005393773,2.879447549
3.008708695,2.807934362,2.612709745,-2.162661398,-0.194432753,-0.273633439,1.478016254,1.258159451,-1.405412287,-5.273045435,4.264328563,10.18203172,4.542112521,8.044766525,6.363094549,-0.26206967,-6.419702354,2.937818085,5.347702185
5.445644407,4.433404633,2.667936093,11.08267016,-0.97786515,0.239951931,1.915002246,0.727437099,-0.590673758,-6.170779216,5.172179958,13.53947079,6.954408482,10.47453862,8.025590758,1.450249829,-4.044042469,6.443504631,7.674792783
6.651643218,6.105104721,2.360849182,15.44341118,-2.230365777,0.339818528,2.074498121,-1.014014237,-2.231345238,-7.415796859,6.784971931,17.83805786,9.060279526,12.40530874,9.573962832,3.376513445,-1.2038907,9.831233391,8.48944718
5.698115134,7.213219126,2.278985918,6.82677708,-3.128318006,-0.032033448,2.999151308,-1.968469657,-3.976300836,-7.082611623,9.918411489,22.2181418,11.11578919,13.27947023,10.85435846,5.458090109,0.381476059,11.36890046,7.626597584
3.368411382,7.662744245,3.083283948,-9.707631209,-2.728856375,-0.262664024,5.327244073,-0.613848428,-3.574331891,-4.337495435,13.68350496,24.97922733,13.04707557,13.17610585,11.731863,7.690356779,0.427321547,10.67588225,6.018147725
1.534994066,7.83338149,4.930994394,-23.08796066,-0.796650806,0.278611523,8.634644875,2.853516452,-0.758268764,-0.246995482,15.91443942,24.44138085,14.17350054,12.46095047,11.84950132,9.612597587,-0.039755638,8.880540007,4.720686673
1.588696801,8.028017762,7.094312264,-23.81278237,1.762442525,1.511180258,11.53852121,6.530753164,2.534511656,2.871135289,14.87681161,20.08038249,13.57048304,11.29005555,10.73253153,10.26011924,-0.001096975,7.467777898,4.00695681
3.290158709,8.011433387,8.230473612,-10.39036774,3.38038466,2.568053376,12.5783476,8.131321839,3.794836836,3.128765709,10.88178476,13.18713698,10.89003593,9.518992206,8.29126275,8.801249785,0.396370968,6.926496662,3.29781153
5.02914853,7.152552588,7.242207046,9.925910712,2.957258008,2.477540832,11.21833982,6.608331829,2.031332699,0.470837114,6.335082692,6.45785642,6.925397278,7.102651251,5.253114556,5.359808981,-0.02417556,6.441668973,1.894609032
5.23737375,5.085308219,4.122094568,26.28412868,0.752950919,0.989812302,8.182650802,2.830307261,-1.451291716,-3.314278068,3.981563788,2.577769333,3.296473696,4.516280322,2.958371881,1.225216408,-2.190610308,4.871366204,-0.239477988
3.711828403,2.270159121,0.107849744,31.22460935,-1.727206874,-1.198654105,4.87766357,-1.148973778,-4.200815666,-5.958575991,4.683869259,2.616301016,1.354887328,2.655794531,2.473115406,-1.884619245,-5.622411739,2.053227057,-2.378390674
1.72547043,-0.119076949,-3.018413781,24.58411129,-2.809367326,-3.015119148,2.405972605,-3.555063695,-4.652862038,-6.317973246,6.61171309,5.322074492,1.15231589,2.181116059,3.671232343,-2.998906406,-8.55720946,-0.8070931,-3.657251857
0.888137166,-0.967739502,-3.991164576,12.16640943,-1.839432498,-3.851845783,0.978725961,-3.908851378,-3.294602533,-4.936649543,6.651151268,7.890554879,1.379349197,2.868758117,5.129969392,-2.545666727,-9.326870518,-2.05479348,-3.789517511
1.79093234,-0.03399619,-2.724593018,1.004306739,0.463055038,-3.938260514,0.134704739,-2.908067949,-2.012829667,-3.226497208,2.99099393,7.767484046,0.425498779,3.634310959,5.094102171,-1.903732161,-7.763838897,-0.996287994,-3.200581319
3.593905681,1.879841819,-0.1638297,-4.923290522,2.722419375,-3.965115114,-0.550779016,-1.498879666,-2.281333942,-2.097795134,-3.22856208,4.278168056,-2.257717402,3.33042694,2.84158188,-2.202079781,-5.354982323,1.467481135,-2.497114134
4.83811923,3.545744736,2.453065115,-5.795576047,4.037058527,-4.372372712,-0.982439287,-0.07976152,-3.819192508,-1.278976071,-8.640766651,-1.045740427,-5.635433521,1.702891578,-0.654150436,-3.366709907,-3.976661087,3.557296626,-1.836807444
4.698047276,4.202459071,4.308463286,-4.07776664,4.557069238,-4.988577755,-0.732231294,1.49471737,-4.881887627,0.135408773,-10.2563198,-5.645992847,-7.900478755,-0.328436912,-3.373298326,-4.212029812,-4.319286401,4.054722028,-0.840270998
3.575060612,3.997147989,5.221678545,-1.998538259,5.07569597,-5.332943295,0.325013899,3.282260088,-3.886880958,2.511765062,-7.867626667,-7.738377858,-7.98688056,-1.365642446,-3.751179311,-3.481300248,-5.38386158,3.215105947,0.867511205
2.591838478,3.664988388,5.382006599,-0.489231445,6.081438317,-5.238029023,1.590666609,4.757934538,-0.921748639,5.03653664,-4.284607062,-7.42371922,-6.523742554,-0.668140771,-1.836986412,-0.93857003,-5.467699879,2.397716851,3.042746233
2.536115183,3.791481411,4.984951329,0.211560366,7.165634684,-5.144247363,2.01040422,5.032264311,2.179164479,6.248150694,-3.178585592,-6.360971098,-5.393530155,1.216723059,0.831395485,2.400267017,-3.734999662,2.793803717,4.797499937
3.227995414,4.322788498,4.121500729,-0.296441013,7.319648875,-5.741856692,0.866297135,3.610841261,3.242607207,5.285549295,-6.251174061,-6.354537028,-6.213333346,2.868458571,2.517584533,5.04227467,-0.978265689,4.392966583,5.275008507
3.815567992,4.715368182,2.928803234,-2.371500481,5.835883748,-7.277123688,-1.574346509,0.955774638,1.445525156,2.722254386,-11.97212163,-7.986520994,-8.972548599,3.115851745,2.650030642,6.087047295,1.065515345,6.059567267,4.440756686
3.627082629,4.521417007,1.730720418,-5.26186474,2.99094985,-9.186109377,-4.129257724,-1.732529877,-2.098450953,0.210952583,-16.82518763,-10.30110816,-11.95448403,1.93588155,2.118666122,5.686796666,1.186545272,6.577889571,3.22807582
2.743884432,3.833108468,0.939324379,-6.621224263,-0.097525183,-10.43944874,-5.465860753,-3.366530362,-5.250006622,-0.777793571,-17.97618804,-11.67306024,-13.02315165,0.402113936,2.290123542,4.600496385,-0.355368692,5.693353798,2.818270972
1.796531382,3.175508232,0.774671728,-3.727872757,-2.303283541,-10.33011116,-4.962100683,-3.710190366,-6.400949782,-0.03582666,-15.21439999,-11.09333471,-11.24685763,-0.229562006,3.631125589,3.372064324,-2.198628639,4.246247746,3.625281786
1.258748516,2.968795788,1.078339958,4.145009387,-3.279017686,-9.0178115,-3.015181073,-3.363280588,-5.394144308,1.399330548,-10.74476158,-8.875899767,-7.580155707,0.5005825,5.161864859,1.950082427,-3.137869333,3.35017963,4.873749145
0.973943453,3.081235477,1.423160688,14.19371645,-3.539745743,-7.349714421,-0.639356822,-3.057368083,-3.205397657,2.292681816,-7.231692832,-6.341502404,-4.121027434,2.01180035,5.236641001,0.074729489,-3.093557874,3.407510926,5.190805301
0.381189975,2.906895836,1.437813866,21.09743568,-3.832984669,-6.123073375,1.233628801,-2.966332694,-0.89433452,2.322449137,-5.846759175,-4.853566535,-2.608315109,3.292612107,2.995000803,-2.028673429,-2.960079673,3.837379801,3.762131224
-0.802067757,1.917849238,1.060772915,20.34945509,-4.408989276,-5.451991294,2.179779886,-2.690217622,1.136382602,2.266009465,-5.867000049,-5.000344942,-3.365864149,3.750931692,-0.76349524,-3.439157807,-3.580735033,3.694589136,1.089291197
-2.141521298,0.203381738,0.516774486,11.62772674,-4.846731139,-4.79540082,2.209405388,-1.886428333,2.991717981,3.142196778,-5.900063467,-6.465350541,-5.427579217,3.546499384,-4.051654371,-3.154089663,-4.889795562,2.552841767,-1.311347622
-2.762667051,-1.491125659,0.085487114,-0.435831758,-4.545960463,-3.595444348,1.453062937,-0.857700357,4.604888603,5.149078338,-5.420908548,-8.505485293,-7.555216356,3.185079281,-5.155277152,-1.052606857,-6.042890334,0.84075642,-2.053697462
-2.120581364,-2.282286685,-0.076557962,-8.954397442,-3.382258985,-1.921049994,0.021438732,-0.419913971,5.398027692,7.413593398,-5.180297697,-10.51932901,-9.182932982,2.852162136,-3.900646692,1.686728072,-6.36738559,-0.621856976,-0.952838223
-0.548125784,-1.80364581,0.112968179,-9.228414946,-1.897384382,-0.513778694,-1.831016156,-1.083095639,4.761051419,8.807575912,-6.203320916,-12.25643494,-10.52790135,2.178271672,-1.715195642,3.214501778,-6.158405287,-1.393000849,0.83638507
0.952449288,-0.467204461,0.838123903,-1.82466164,-0.851768185,-0.184227944,-3.512194604,-2.320683208,2.928854587,9.077821746,-8.431344272,-13.64073697,-11.93755876,0.678242823,-0.462926825,2.293451074,-6.489641942,-1.747309212,1.708017301
1.519190818,0.860381472,2.415515922,7.887145962,-0.561559276,-1.101209656,-4.232152776,-2.736582849,1.311943736,9.206861873,-10.37105237,-14.52975475,-13.22225964,-1.570423371,-1.01512359,-0.765848976,-8.164372827,-2.305366559,0.798557301
1.125942329,1.476641137,5.032041878,13.39203503,-0.631278913,-2.613603118,-3.506871968,-1.163152196,1.725742788,10.58466244,-10.16264586,-14.7114883,-13.65965713,-3.708823067,-2.683470127,-4.2952667,-10.7945013,-3.365462534,-1.438286298
0.539772775,1.251612755,8.359894786,11.32027099,-0.319032112,-3.764035972,-1.623380208,2.191204836,4.964258997,13.65465747,-7.161220369,-14.13263024,-12.66415796,-4.633144366,-3.903389091,-6.475395665,-12.93671898,-4.616436275,-3.656274447
0.579234232,0.533700144,11.41987695,3.506308388,0.804117169,-4.036871805,0.416825086,5.615079785,9.880661364,17.23568832,-2.632488684,-13.08858087,-10.46137657,-3.877018826,-3.555625263,-6.634878932,-13.26239004,-5.51468443,-4.624242806
1.341048686,-0.304039472,12.92532297,-4.357092234,2.486423357,-3.688241768,1.553875837,7.066356165,13.88085423,19.21193582,1.080149559,-12.13857476,-8.094267721,-2.071230597,-1.863830512,-5.655471121,-11.75778348,-5.942584393,-4.009195339
2.086600709,-1.254400246,11.95314474,-6.329137583,4.016436904,-3.398911924,1.450544505,5.784516318,14.64630689,18.13404129,2.246855024,-11.78163897,-6.70682736,-0.538437228,-0.213157627,-5.215516997,-9.856639203,-6.469804811,-2.411427219
1.882752584,-2.672896194,8.490878215,0.318831634,4.79312633,-3.602593227,0.740005137,3.001537363,11.85723234,14.46032817,0.918422834,-12.16028736,-6.717455004,-0.314330021,-0.103889013,-6.499839638,-9.315579318,-7.899183173,-0.77663454
0.419763967,-4.906668154,3.470708095,13.74529439,4.72065315,-4.114244279,0.480866662,1.06746152,7.571514619,10.39217969,-1.330233637,-13.0290972,-7.595138946,-1.383014447,-2.071490713,-9.357721667,-10.75786737,-10.46363015,0.248864589
-1.714747951,-7.886825722,-1.722133061,28.6665051,4.11347006,-4.378043522,1.230056029,1.606387114,4.874202397,8.35645685,-2.766153016,-13.97998979,-8.405904312,-2.738240027,-5.337357425,-12.47230841,-13.13419935,-13.41206776,0.543754092
-3.52846952,-11.02929512,-5.910484014,38.94138509,3.277719893,-4.067069322,2.50448029,4.172188724,5.719879895,9.266033882,-2.786271525,-14.701985,-8.613286869,-3.191780649,-8.3499126,-14.31574049,-14.57950876,-15.42528163,0.295757219
-4.429506725,-13.52928715,-8.540919309,40.16327438,2.221299119,-3.443114954,3.114948128,6.529006882,9.528185071,11.8747241,-2.121835718,-15.06737418,-8.417336848,-2.248140867,-9.757685953,-14.14784448,-13.95075963,-15.58805508,-0.312679063
-4.641349748,-14.8321722,-9.700629102,31.27918971,0.777235261,-3.120503997,2.138707284,6.386361924,13.56257193,13.69911158,-1.955006206,-15.0399088,-8.369776102,-0.358923253,-9.159297242,-12.41160449,-11.75480651,-14.14108606,-1.198191474
-4.904772674,-14.95100739,-9.892678934,14.93258349,-1.015624076,-3.448314169,-0.24953262,3.231217654,14.82662165,12.79484539,-2.840848447,-14.57418816,-8.679514078,1.565719839,-7.236810718,-10.39697443,-9.710149066,-12.3875701,-2.247427687
-5.781694578,-14.43201018,-9.806765058,-3.412126918,-2.706096114,-4.099022391,-2.776560092,-1.196577984,12.12403804,9.076091809,-4.364270441,-13.64740114,-8.899277829,2.892996637,-5.306733412,-9.514610072,-9.349729043,-11.80456282,-3.214347067
-7.191286095,-14.01221461,-10.15347964,-17.38881858,-3.66830545,-4.278936867,-3.928042837,-4.162123835,6.838773872,4.276134287,-5.694017537,-12.38090626,-8.313518205,3.614737725,-4.605389216,-10.6278085,-10.84967362,-13.03316446,-3.831700367
-8.543325912,-14.18843335,-11.45330998,-22.26143802,-3.608453758,-3.4102508,-3.011236539,-3.938213557,1.931195888,0.686182093,-6.382875303,-11.07756096,-6.67829818,4.088248411,-5.665654949,-13.69520278,-13.01384984,-15.4846768,-4.043008015
-9.269373468,-14.93503105,-13.72094855,-17.13176684,-2.868354668,-1.691110806,-0.622279658,-1.014502007,-0.096253604,-0.344278581,-6.635182186,-10.07147145,-4.614216075,4.51502981,-8.037660958,-17.75739425,-14.32539987,-17.78674208,-4.079099027
-9.22323034,-15.70320504,-16.22479811,-5.573760401,-2.201235136,-0.025453519,1.797610915,2.352240227,1.167838687,0.893534437,-6.868027055,-9.493677043,-3.246804872,4.694769647,-10.46869037,-21.23156097,-14.10645078,-18.66170038,-4.23179028
-8.611415097,-15.69188794,-17.642027,6.073337438,-2.166387864,0.642269045,2.93559413,3.808748126,3.904432541,2.927067667,-7.10292449,-9.180762571,-3.36183864,4.271260748,-11.50059267,-22.48231977,-12.83681261,-17.58754305,-4.500912562
-7.605082087,-14.26209446,-16.72813386,12.18578018,-2.651090004,0.034274445,2.38297122,2.487305718,5.444627148,4.242685852,-6.858100906,-8.845562083,-4.787895936,3.185853342,-10.24559644,-20.54445855,-11.49465006,-14.87187486,-4.476414318
-6.088486381,-11.29891897,-13.16901317,11.1516734,-2.93970007,-1.298073154,0.724267613,-0.607700566,4.168694349,4.249935534,-5.669792316,-8.374823934,-6.533862101,1.855078774,-6.935237752,-15.6790446,-10.62804736,-11.26308934,-3.645958148
-3.829929022,-7.330118584,-7.984116383,6.240295049,-2.280650401,-2.467079079,-0.985258237,-3.503679129,0.620201356,3.47678443,-3.706200941,-7.96639551,-7.558696101,0.870657797,-2.867100773,-9.366502516,-10.00565176,-7.501062308,-1.917281897
-0.902251915,-3.310986454,-3.053632781,3.16792798,-0.471814438,-2.948223775,-1.873817211,-4.605135151,-2.883064703,3.014075726,-1.807521552,-7.938978168,-7.512573552,0.500207294,0.309578225,-3.588597451,-9.068525196,-4.102494377,0.113161877
2.104802511,-0.165812887,0.016290711,5.780375871,2.021017621,-2.886487345,-1.597308567,-3.474813318,-3.821943608,3.708871892,-0.824558703,-8.353657252,-6.834931544,0.47866681,1.57484447,0.253714867,-7.643711287,-1.374609038,1.455630057
4.358830542,1.65627273,0.897927411,12.86055995,4.479264592,-2.785596691,-0.287213567,-0.673092008,-1.131841487,5.668568148,-0.825432014,-8.796965883,-6.175111977,0.315001073,1.140160544,2.082496515,-6.188493795,0.527651583,1.422782156
5.347850903,2.329545985,0.635490334,18.58942258,6.485859213,-2.910742594,1.676030817,2.940464403,4.173540794,8.33136771,-0.92354257,-8.574544533,-5.694485115,-0.157893089,0.23466221,2.990834971,-5.347692108,1.61187001,0.178915781
5.225971753,2.400789298,0.718410449,16.71437444,8.13157937,-2.973084874,3.827382163,6.75633299,9.786751202,10.95540523,0.046282919,-7.216219441,-4.893201672,-0.519030288,0.212144118,4.275453121,-5.2972217,2.058822656,-1.337746211
4.608291135,2.318311337,1.846310046,5.663530586,9.729536177,-2.386637173,5.686720416,10.46811068,13.69821311,13.14048159,2.54504562,-4.899726435,-3.117288186,-0.071938351,1.627590289,6.376791271,-5.54832821,2.117878327,-2.106687219
3.989460815,2.095342101,3.378693818,-9.194754326,11.34592049,-0.859006196,6.853703886,13.81990746,15.4517844,15.02601005,5.888401155,-2.43299345,-0.284401156,1.504289042,3.956272699,8.553332468,-5.421331956,1.911634342,-1.800251732
3.324976207,1.37137594,3.927055406,-18.22633725,12.60322463,1.225202531,7.18038782,16.45567701,16.19076567,17.04569089,8.746825007,-0.782160567,2.834331218,3.742601765,6.117737891,9.544213435,-4.729175095,1.332250824,-1.015968739
2.177012557,-0.177701965,2.606001563,-13.76436008,12.93704323,2.984382539,6.887777954,18.04472746,17.51399916,19.41514807,10.17271179,-0.499826076,5.053906077,5.618460672,7.328712147,8.667789796,-3.990049251,0.179817863,-0.764522811
0.296663922,-2.423776606,-0.105906459,4.233364271,12.06089272,3.644803076,6.437132912,18.49307268,20.03902973,21.72151346,10.28155606,-1.478087623,5.589271822,6.279415897,7.576020628,6.438373816,-3.93189482,-1.536560654,-1.615835141
-1.918868768,-4.7328183,-2.642539014,27.19816656,10.21334356,3.0712698,6.15845201,17.9564077,22.78404715,22.95491497,10.01676953,-3.168322516,4.57772896,5.68573461,7.368901821,4.183954237,-4.739939301,-3.419361046,-3.18989337
-3.573956952,-6.355437935,-3.57113561,42.72146567,7.980677886,1.804911021,5.913272816,16.6229707,23.85683278,22.05482657,10.22120228,-5.028828151,2.89780331,4.628504568,7.074597135,2.988471358,-5.773725528,-4.856100248,-4.40665025
-3.961127935,-6.969951301,-2.766985883,42.19123568,5.88230746,0.618086053,5.129753691,14.53044686,21.93039392,18.67230705,10.82667994,-6.814436372,1.463263867,4.104338068,6.492290086,2.849726624,-6.067580964,-5.470347402,-4.302987679
-3.200045918,-6.937395601,-1.567635703,26.26963604,4.099569736,-0.016717186,3.270779005,11.67357277,17.35936611,13.61999987,10.85360327,-8.519543681,0.585110363,4.555991175,5.069186608,2.751716963,-5.199282226,-5.484067979,-2.776936898
-2.23393407,-7.041939414,-1.75729618,4.494636935,2.553129055,-0.129397855,0.389317615,8.329965498,12.04893899,8.605863178,9.210314146,-10.12526251,-0.107810734,5.583849127,2.542262034,1.566216037,-3.742040265,-5.640264652,-0.684233168
-2.125324149,-7.901402957,-4.180879639,-10.79027148,1.18080038,-0.043601212,-2.731036937,5.223289029,8.151766841,5.309417403,5.616237133,-11.46343925,-1.200238912,6.324339152,-0.628187256,-0.997543754,-2.859488944,-6.682027214,0.776493513
-3.210459354,-9.502236832,-8.076212807,-12.14886762,0.090080706,-0.031174361,-5.062430152,3.213468552,6.590905777,4.365594997,0.901447773,-12.35642967,-2.935362956,6.141321533,-3.48919392,-4.18722541,-3.362617625,-8.774309938,0.912315003
-4.818085963,-11.21425503,-11.6188614,-1.321510533,-0.573728885,-0.166991002,-6.124735197,2.646305667,6.54804507,4.973830507,-3.520779638,-12.8850763,-5.05589567,5.054417523,-5.325286683,-6.870876706,-5.036997474,-11.33436659,-0.012261144
-5.792530766,-12.25363689,-13.20795421,12.60371121,-0.872546925,-0.465410606,-6.442611664,2.905499857,6.286414193,5.466314015,-6.550217001,-13.48084636,-7.129269503,3.600191361,-6.23004865,-8.446522712,-6.822033283,-13.41473936,-1.023476055
-5.384350318,-12.21102788,-12.48083309,19.59792989,-1.116081525,-1.075925739,-7.235311629,2.657999092,4.608067232,4.479315764,-7.97856926,-14.68482784,-9.00406436,2.322456056,-6.966149685,-9.198422091,-7.680336259,-14.32833336,-1.161872311
-3.773634925,-11.2349877,-10.33848321,15.17559331,-1.583564086,-2.262537205,-9.511992347,0.741493553,1.748677959,1.891597106,-8.40310452,-16.72866825,-10.94578575,1.372154199,-8.196163279,-9.829342971,-7.398796641,-14.0150987,-0.135931834
-1.824862747,-9.770576113,-8.094423781,2.683992788,-2.172298753,-4.132534195,-13.25454443,-2.94230065,-0.994857582,-1.168838863,-8.677347463,-19.27696647,-13.31261302,0.538576378,-9.765771862,-10.64175277,-6.64246039,-12.89093685,1.539825493
-0.33491549,-8.126180456,-6.513376655,-9.746723507,-2.362418192,-6.371083744,-17.34132064,-7.254245758,-2.531323813,-3.253053882,-9.383845739,-21.55554607,-16.06437421,-0.391342394,-10.72410662,-11.13565385,-6.257661867,-11.37452954,2.964836142
0.555826523,-6.262042955,-5.476284098,-15.04722985,-1.630898969,-8.28467385,-20.29646599,-10.5523007,-3.005214708,-3.728223951,-10.6538155,-22.78226002,-18.56728441,-1.340237019,-10.13491471,-10.3934461,-6.481640795,-9.550320928,3.486830866
1.308496739,-3.971861297,-4.400021508,-11.64748407,-0.001370199,-9.197774142,-21.29734273,-11.78615726,-3.667874014,-3.22275125,-12.29129175,-22.59258481,-19.91964062,-2.011359486,-8.00833871,-7.910979535,-6.775162591,-7.267472875,3.101929281
2.399759044,-1.270461421,-2.923699025,-3.694485778,1.790484135,-8.914966935,-20.67294646,-11.10238471,-5.679240287,-3.026309048,-13.95521329,-21.19403349,-19.58645256,-2.246160485,-5.518053511,-4.149571527,-6.412732935,-4.549694994,2.380202043
3.775725331,1.380730597,-1.255197718,2.568836527,2.759560625,-7.865937128,-19.54110753,-9.518005014,-8.884575327,-3.939452399,-15.25179522,-19.21977721,-17.86039796,-2.299190064,-4.239337157,-0.348010608,-5.274119626,-1.891754051,2.01471112
4.842607647,3.235458902,0.02923048,3.286827229,2.447950347,-6.794001148,-18.91353526,-7.996769669,-11.67926821,-5.52829963,-15.80385788,-17.44704581,-15.77881565,-2.724300846,-4.977367248,2.222963089,-4.099197224,-0.115840851,2.324153429
4.978838492,3.705461239,0.447664021,-0.855403349,1.360384332,-6.225186992,-18.98623301,-6.738788442,-12.17310482,-6.424145671,-15.4151352,-16.54221019,-14.52320397,-3.924173508,-7.131075468,2.947275107,-3.948212105,0.139428662,3.037192931
4.083218097,2.746863259,-0.092076682,-5.934998428,0.625836395,-6.136168272,-19.13057489,-5.261682721,-9.744964341,-5.458262821,-14.27649633,-16.85998723,-14.69707782,-5.73829557,-9.119636815,2.010182437,-5.314861357,-1.11164177,3.484807725
2.664829525,0.905955033,-1.33273093,-8.075782998,1.094245763,-6.068255578,-18.50857107,-3.125578085,-5.698286586,-2.727368632,-12.98721492,-18.25825884,-15.95363888,-7.437618507,-9.534561879,0.047442125,-7.646321406,-3.15727294,3.066931558
1.417340313,-0.989046523,-2.868943667,-6.054497335,2.594866052,-5.56260306,-16.76206543,-0.584631237,-2.431473468,0.283464038,-12.2397966,-19.98814385,-17.19887996,-8.161247147,-8.103854417,-2.268064428,-9.676005949,-4.999069338,1.69302327
0.685269296,-2.254585155,-4.260452798,-1.497534914,4.001959247,-4.540522714,-14.2415926,1.46133274,-1.749937442,1.656196228,-12.33075248,-20.84917218,-17.22719309,-7.464563412,-5.745802066,-4.353867478,-10.29295181,-5.893321333,-0.089562232
0.299461564,-2.624735082,-5.029448576,2.983147706,4.10392458,-3.329015839,-11.68099257,2.181790399,-3.652639793,0.361235809,-12.91141783,-19.73479304,-15.40517608,-5.564408129,-3.762582672,-5.630237538,-9.250902519,-5.643715981,-1.379325143
-0.109795959,-2.262614294,-4.735625073,5.860332969,2.589479757,-2.35198569,-9.676487752,1.538627262,-6.533766481,-3.046741331,-13.28105412,-16.38111457,-12.02948195,-3.12625223,-2.901338774,-5.56554932,-7.198753324,-4.52524901,-1.458992559
-0.660068937,-1.592135907,-3.256458179,7.275434477,0.33957321,-1.784382945,-8.415714218,0.338155448,-8.584844783,-6.853111056,-13.07540558,-11.81536451,-8.195259042,-0.805281519,-3.027216485,-4.026894261,-5.097651054,-3.020953746,-0.253829081
-1.069824363,-1.091344743,-1.091340035,7.949604741,-1.22778627,-1.467630985,-7.80099021,-0.46272846,-9.236403011,-9.367932483,-12.80012063,-8.033124438,-5.274751194,1.084654378,-3.543673784,-1.656046436,-3.556480722,-1.621481534,1.598107238
-0.945406461,-1.117806534,0.693419319,7.728082519,-1.23333412,-1.130966604,-7.740283192,-0.58995375,-9.517960245,-9.982382974,-13.70476959,-6.922485894,-4.286313193,2.558865184,-4.039546147,0.233609163,-2.592753821,-0.75432633,3.133095639
-0.203059761,-1.762131522,1.060767808,5.310382967,0.033580333,-0.693721825,-8.281833009,-0.683531072,-11.16697749,-9.389683854,-17.01734948,-9.079290829,-5.468757559,3.70349806,-4.526009891,0.420898825,-1.893615479,-0.712690992,3.665383524
0.800991237,-2.746368927,-0.180402957,-0.415389871,1.412268985,-0.372046744,-9.498096187,-1.72512411,-15.34227176,-8.950734398,-23.13537961,-13.38494033,-8.266919212,4.452354179,-5.114829233,-1.260296367,-1.234380696,-1.478025814,3.200686843
1.571743194,-3.458458345,-2.003529051,-8.533071923,1.801796076,-0.506123503,-11.31988267,-4.190355741,-22.0307349,-9.795772917,-31.47123222,-17.76060445,-11.72865742,4.594356754,-5.585379599,-3.57481355,-0.664259788,-2.551691093,2.370275846
1.923928122,-3.209197623,-2.68971955,-15.47892223,0.933713086,-1.272568412,-13.57442044,-7.707114592,-30.5299416,-12.32779198,-41.13195327,-20.64312947,-15.09572635,3.961936755,-5.408122894,-4.611398995,-0.370494441,-3.062427963,1.934796599
2.142291502,-1.649135695,-1.009043899,-16.57038777,-0.61500078,-2.531541229,-16.23914421,-11.53460104,-40.41149389,-16.3515636,-51.88471933,-22.12278812,-18.25089601,2.586933046,-4.315080331,-3.16926804,-0.450450547,-2.265058223,2.224506252
2.686217243,0.906060421,2.797569442,-8.984698349,-2.081820856,-3.922118354,-19.63755639,-15.40410731,-51.99143147,-21.5240736,-64.55084247,-23.87132995,-21.74794495,0.67050486,-2.891490664,0.245034678,-0.854569069,-0.165765341,2.931611658
3.707799942,3.523634101,7.051390761,5.745202814,-3.195683719,-5.103040504,-24.28289324,-19.8882722,-65.85696865,-27.64566355,-80.38841037,-27.88033586,-26.39156178,-1.582315286,-2.519615263,3.661894727,-1.522306822,2.243210159,3.399530247
4.843156148,5.134208258,9.751411212,21.56848836,-4.258288893,-5.933576012,-30.37899642,-25.85685441,-81.91132657,-34.56878329,-99.8525762,-34.94016856,-32.61901627,-4.075027835,-4.523381976,5.026676049,-2.500736891,3.469970987,3.166650193
5.494415535,5.164492698,9.959302675,30.56480178,-5.607460957,-6.472851983,-37.35235556,-33.41555855,-98.85831227,-41.90001294,-121.6776188,-43.98503052,-40.07586433,-6.753757978,-9.106656064,3.659262759,-3.862356697,2.502338078,2.326001693
5.362517304,3.870266749,8.37591329,27.11203896,-7.028544957,-6.845697777,-43.8620209,-41.26971334,-114.6483373,-48.84455076,-143.0308037,-52.74454009,-47.66277389,-9.434328018,-14.96696279,0.634490028,-5.489139165,-0.427873233,1.418935918
4.742264853,2.098718368,6.650956277,11.24766923,-7.729859776,-7.117603668,-48.40296816,-47.1919288,-127.5319924,-54.37734895,-160.6914937,-59.13468814,-54.02500322,-11.72432974,-19.99134769,-2.208721238,-6.984861084,-3.943749235,0.965656707
4.288011718,0.63943424,5.991667809,-10.77319292,-6.968868672,-7.271819453,-50.13468365,-49.37972842,-136.8269277,-57.62300077,-172.4568639,-62.31146953,-58.17027724,-13.1705078,-22.56794489,-3.783974728,-7.887693474,-6.49802609,1.032394405
4.430141101,-0.336352069,6.213917334,-29.22465126,-4.791839727,-7.2619604,-49.34013728,-47.70530452,-142.7904066,-58.17686211,-177.864628,-62.69015381,-59.83702702,-13.54675941,-22.51895575,-4.518917109,-8.046020908,-7.508150142,1.198152021
4.944887308,-1.296954605,6.010476296,-35.64710914,-2.202310717,-7.051855589,-47.16381842,-43.86311129,-145.8294582,-56.20392074,-177.9018566,-61.13827804,-59.4310497,-13.04145772,-20.95057085,-5.739526712,-7.802782212,-7.739621321,0.945269263
5.061512005,-2.807926206,4.190525755,-27.11589994,-0.545835868,-6.601903558,-44.81361136,-40.24455746,-145.8886772,-52.35719398,-174.1217935,-58.18849813,-57.64882009,-12.16021665,-19.19814985,-8.255233146,-7.755415534,-8.583060781,0.142487413
4.035869586,-4.873265189,0.827983787,-7.74317885,-0.577859728,-5.84931111,-42.81322334,-38.35844852,-142.6599529,-47.64288075,-167.9033063,-53.96155476,-55.08613604,-11.39304218,-17.77759956,-11.42611173,-8.242839822,-10.76855241,-0.785955454
1.729896847,-6.727688206,-2.663716573,13.45719202,-1.96880815,-4.751007698,-40.83855584,-37.96978318,-136.4291271,-43.26787841,-160.2710058,-48.7303548,-52.07619414,-10.90033212,-16.21191807,-13.57521862,-9.003409664,-13.56197393,-1.148064716
-1.253132526,-7.299427869,-4.602696727,27.22903524,-3.641640198,-3.383265533,-38.21142602,-37.56295123,-128.6793899,-40.38827473,-152.1080537,-43.41340281,-48.78521827,-10.46499879,-13.82182868,-13.41799194,-9.346007142,-15.14680439,-0.495738967
-3.945781168,-6.017159456,-4.360756587,28.68799545,-4.644984496,-2.001577674,-34.62796146,-35.70922904,-121.6802672,-39.71646276,-144.2856489,-39.35239373,-45.40193101,-9.738110071,-10.72208552,-11.25266596,-8.73394259,-13.95548498,1.046362059
-5.570792987,-3.335878252,-2.836828416,19.28996598,-4.837866257,-0.9647153,-30.5498176,-32.25181577,-117.158069,-41.13836525,-137.4387174,-37.43596179,-42.22747312,-8.561066562,-8.080072619,-8.818119566,-7.28708533,-9.93287557,2.878589035
-5.856597099,-0.554993378,-1.704854652,5.097672719,-4.856277031,-0.536905743,-26.97556325,-28.42165728,-115.0242912,-43.63617462,-131.5775153,-37.31650989,-39.59390397,-7.089919791,-7.33246364,-7.865399592,-5.739477558,-4.737361349,4.346256581
-4.971439013,0.957844446,-2.085812014,-7.424855118,-5.45809066,-0.70540417,-24.78622012,-25.86576256,-113.2378623,-45.70095679,-125.9654121,-37.48005929,-37.68729158,-5.626277475,-8.974453135,-8.632035132,-4.853622267,-0.705879538,5.139220501
-3.274249138,0.575249031,-3.751955674,-15.27039272,-6.847794258,-1.165517476,-24.1536944,-25.39538453,-109.0561469,-46.07775864,-119.4833137,-36.23042154,-36.41011291,-4.318885493,-11.94962323,-9.553074655,-4.790152119,0.634351009,5.384036601
-1.169516659,-1.314288341,-5.487705192,-19.82863335,-8.543141244,-1.504289571,-24.41980622,-26.41249846,-100.8433804,-44.38625368,-111.2583812,-32.85248543,-35.37216321,-3.015874697,-14.21857542,-8.533247319,-5.004844273,-0.598444649,5.416204297
0.858412724,-3.701120675,-6.238706784,-24.40062606,-9.83162262,-1.457437609,-24.50121919,-27.38791607,-89.14949608,-41.19046014,-101.0952098,-28.04049715,-34.01823841,-1.419544228,-14.1381642,-4.779605405,-4.797895503,-3.011359028,5.465735366
2.218576061,-5.656221211,-6.031491799,-30.30612417,-10.35346501,-1.058454195,-23.53246725,-26.95406316,-76.3212438,-37.47638295,-89.437687,-23.28466745,-31.84879094,0.568617715,-11.61858123,0.321167073,-4.048698176,-5.114919256,5.511247181
2.403570715,-6.799671351,-5.879074789,-34.75022151,-10.28608873,-0.59033117,-21.34868238,-24.77374649,-65.00452393,-33.94192931,-77.01204956,-19.7696769,-28.66723994,2.602865132,-8.18145317,4.050823279,-3.463014583,-6.334133379,5.373361829
1.352433071,-7.25334815,-6.779222371,-32.40035139,-10.01495604,-0.402893437,-18.55318721,-21.60675207,-56.65611614,-30.63470778,-64.53805759,-17.69618926,-24.76048031,3.980127455,-5.882969129,4.30700255,-4.049319796,-7.114573473,4.915532702
-0.327916684,-7.24160783,-8.689856506,-19.78493459,-9.657652793,-0.737295222,-16.17004978,-18.64063449,-51.03871158,-27.16842691,-52.72294781,-16.49502831,-20.8911788,4.040766604,-5.913582033,1.133542265,-6.213512589,-8.184277548,4.171311875
-1.581117797,-6.760695203,-10.37956189,0.764747211,-8.919059593,-1.648162401,-15.08475661,-16.65194633,-46.82572574,-23.26091556,-42.36679064,-15.58785371,-18.01396898,2.619368162,-7.884902207,-3.341144452,-9.235320331,-9.703157156,3.327601097
-1.519353528,-5.615119056,-10.31277481,20.93293895,-7.412165617,-3.004450805,-15.55102031,-15.57964731,-42.63641383,-19.08452721,-34.228342,-14.90747999,-16.77187909,0.229443223,-10.25024645,-6.46035652,-11.62167253,-11.04023203,2.625724108
-0.025328262,-3.756031495,-7.874909152,30.73526297,-5.119428474,-4.502093931,-16.99817982,-14.70123351,-37.6834095,-15.11961315,-28.54833196,-14.70948764,-17.02685349,-2.157423098,-11.45771142,-6.84610995,-12.12458732,-11.31704363,2.269136234
2.132841302,-1.578381366,-3.973746526,24.69967285,-2.529259087,-5.677694259,-18.24658036,-13.16702106,-31.74259048,-11.67281488,-24.58111314,-14.95386648,-17.76546668,-3.6062122,-10.95896144,-5.105110979,-10.65048306,-10.19482424,2.356636831
3.792903066,0.132012956,-0.556273352,5.65622186,-0.29028983,-5.993451344,-18.05766293,-10.48586806,-24.79143805,-8.540593814,-20.67215452,-14.98136566,-17.55874203,-3.682232231,-9.404241148,-3.038610471,-8.347473726,-8.217111626,2.808610204
4.137206389,0.612789792,0.590327391,-16.64572869,1.309232669,-5.051802407,-15.76330446,-6.70626913,-16.8375387,-5.173776482,-15.07226731,-13.91550485,-15.38699632,-2.613427314,-8.010820396,-2.143584287,-6.793632725,-6.441406913,3.300531554
3.127622582,-0.387669201,-1.104869112,-31.2767031,2.546390857,-2.870456068,-11.63244342,-2.299357173,-8.095913978,-1.235342115,-7.037023649,-11.46340094,-11.31760473,-1.080939758,-7.662246776,-2.637519833,-6.901311812,-5.696935105,3.305425064
1.348987509,-2.400591057,-4.756461837,-32.33744172,3.938610837,-0.019072086,-6.736196475,2.096047768,0.796154795,2.945655239,2.6086659,-8.308653641,-6.530385314,0.209097145,-8.384455592,-3.657940819,-8.344395216,-6.07169372,2.3373867
-0.535648037,-4.451237708,-8.638419181,-21.52692872,5.663141118,2.559844159,-2.35623944,5.920600407,8.923349259,6.477704725,11.96211192,-5.594765358,-2.590382905,0.911040878,-9.470974103,-4.255616729,-9.876932105,-6.977556787,0.325923126
-2.223841326,-5.552326658,-11.14258627,-5.725995126,7.249415074,4.017795414,0.715204938,8.871344753,15.61402183,8.561864116,19.31879092,-3.855410008,-0.415642495,1.175148843,-10.04270004,-4.210923464,-10.22703477,-7.641110943,-2.141561259
-3.765075435,-5.170927167,-11.47301813,8.123103659,7.852879827,4.0829396,2.536471074,10.98516978,20.9097139,9.201018979,24.31005804,-2.363980617,0.339684818,1.48856709,-9.590067909,-3.997524525,-8.873256122,-7.569388508,-3.983088747
-5.202025245,-3.420099224,-9.789638975,16.86534006,6.912723078,3.219166784,3.806024858,12.5932723,25.5053625,9.368764282,28.03851131,0.382111883,1.019099265,2.344049192,-8.164498017,-4.053932186,-6.201369908,-6.663413257,-4.207697577
-6.276004531,-0.918398631,-6.909848698,21.18161299,4.650787649,2.322206548,5.249244932,14.1256844,30.12196986,10.43862972,32.10885756,5.309163787,2.976717892,3.938409953,-6.193757513,-4.131889916,-3.076404255,-5.024800672,-2.57857556
-6.520841696,1.561782745,-3.85173513,22.60650382,1.991540413,2.146643721,7.06383184,15.83356306,34.80745401,13.24994231,37.31589317,11.67159483,6.574919799,6.064381238,-4.1364999,-3.36507535,-0.27579783,-2.753645517,0.142444032
-5.670600619,3.463630752,-1.433813698,20.70114595,-0.033443359,2.861122254,8.832937813,17.59809856,38.78458791,17.48105352,43.01397779,17.25850765,10.90055106,8.236344194,-2.226709082,-1.011098468,1.789976307,0.040776306,2.620225627
-3.982807257,4.667124256,-0.015143947,13.16551153,-0.911059104,4.030898772,9.945051578,18.98971001,41.03275705,21.78469908,47.64119279,19.90998907,14.40571165,9.95656454,-0.430704338,2.792281892,2.995907638,3.079633434,3.793399613
-2.139779415,5.473457658,0.585095339,-1.126747438,-0.818653257,5.000684181,10.15971175,19.58370117,41.16443279,24.59300174,49.96032241,19.20141638,15.99084912,10.95881122,1.418435295,6.922443056,3.308889386,5.853000843,3.535345501
-0.781968765,6.359814725,0.937877064,-18.98358343,-0.268618714,5.359805226,9.849958331,19.32900856,39.88541101,25.04463339,50.04249973,16.90248185,15.72831817,11.29584407,3.429254719,9.919042225,2.743562597,7.806884667,2.625131025
-0.080733572,7.616120092,1.632429467,-32.8525692,0.401229597,5.147319011,9.724004832,18.68311257,38.65197561,23.44473192,49.26178445,15.74419553,14.71618649,11.2416999,5.517813799,10.86560401,1.477099689,8.654739343,2.04830208
0.264428968,9.058898134,2.849371606,-34.69910918,1.225493541,4.699526939,10.25579748,18.36694134,38.77990035,21.02361125,49.35136951,17.39850188,14.21771729,11.08958648,7.387541259,9.838624796,-0.0932907,8.525255962,2.182331737
0.606798174,10.01585145,4.164944147,-21.3546558,2.358537991,4.334115047,11.28592595,18.87471627,40.67372501,19.21618989,51.24902209,21.24357468,14.75899035,10.97307556,8.61258831,7.65527022,-1.527652121,7.780587991,2.520605011
0.911623856,9.643626155,4.778349129,2.587424517,3.6709991,4.156644843,12.1071341,20.08164248,43.70053498,18.92527944,54.53103181,24.87330192,15.83823485,10.80184612,8.768653099,5.211648791,-2.671390025,6.643697222,2.15219296
0.727386359,7.428765972,4.053857204,26.68852118,4.643306091,4.110699528,11.95677313,21.25453843,46.69343056,20.15498524,57.72895786,25.91166578,16.39447142,10.32269043,7.550082806,2.954993726,-3.836803599,4.972732031,0.593495164
-0.370747793,3.570728672,1.995560531,40.33881197,4.727518852,4.147654354,10.53206473,21.49961195,48.62027488,22.1344573,59.20636995,23.67578945,15.61397836,9.254649404,4.849421248,0.822723101,-5.606709254,2.416211287,-1.72043634
-2.251753865,-1.009825642,-0.711435162,38.48935794,3.896257209,4.300810543,8.163596776,20.37107795,48.95281917,23.79956285,58.006352,19.43113884,13.46075125,7.436650028,0.824184907,-1.439530391,-8.340100459,-1.145361066,-3.688717493
-4.109303947,-5.057083738,-3.125339154,23.83129247,2.877826687,4.58610257,5.581688265,18.23949858,47.64786614,24.37340982,54.25780344,15.19527221,10.60716549,4.946728488,-4.020615477,-3.921066039,-11.74335543,-5.23133785,-4.324902018
-4.908457388,-7.516226301,-4.588136338,4.425868405,2.797495089,4.866473603,3.514887153,16.16702422,45.00483049,23.77960081,49.0813416,12.21835856,7.930009089,2.161388379,-8.775194747,-6.412786967,-14.86504876,-8.794462879,-3.422411753
-4.06346127,-7.891640772,-4.948699743,-11.16341826,4.430858017,4.882124545,2.420905052,15.35054579,41.66111332,22.6934454,44.15285713,10.41457742,6.018061716,-0.289325432,-12.22307738,-8.506845495,-16.56667683,-10.68081594,-1.588015201
-1.80502864,-6.26371653,-4.340762064,-17.93795056,7.619015787,4.485074784,2.45807308,16.46026624,38.6762254,22.17848768,41.09688206,9.06896365,5.023049613,-1.711824685,-13.21625182,-9.778530864,-16.16420212,-10.2207538,0.320405054
1.042303065,-3.071857941,-2.812591499,-15.62698197,11.30454813,3.87753168,3.57490403,19.25641944,37.40062784,23.0628059,40.85427049,7.980824834,4.836205322,-1.65858236,-11.27135408,-9.939377644,-13.81424638,-7.573470598,1.823945201
3.655890942,1.086808351,-0.246155855,-7.208877437,14.1879905,3.585673166,5.547807685,22.69544282,38.93460976,25.40018396,43.23356546,7.865372112,5.319264994,-0.217748191,-7.069599556,-8.965198168,-10.41586872,-3.643467996,2.986633038
5.67632202,5.498924789,3.294695485,3.37090091,15.54026371,4.103080966,7.949487725,25.45851867,43.39466627,28.38219328,46.92707641,9.596756159,6.360843692,1.925587991,-2.427393545,-7.21344085,-7.136436361,0.325632114,4.04341841
7.188874413,9.310113682,7.122443476,12.6628705,15.59680932,5.451267856,10.1918317,26.6117798,49.52939697,30.82307831,50.13983317,13.02331577,7.776176681,3.786546013,0.472442078,-5.436731521,-4.882105781,3.222171317,4.922825478
8.330309319,11.64934326,9.916715591,18.11838488,15.27559688,7.038918651,11.7592183,26.0484741,55.10957533,31.93598896,51.59201642,16.56231319,9.253421818,4.639579996,0.293315366,-4.544149913,-3.992622678,4.39780344,5.173557435
8.948606866,11.97930581,10.35146726,18.2603947,15.44845779,8.002038508,12.53540134,24.48515369,57.98748573,31.84953407,51.2789641,18.13479265,10.4923621,4.511302987,-2.536915636,-5.110582367,-4.237646563,3.800077285,4.394677707
8.652212724,10.46426935,7.973508235,13.25837932,16.28946827,7.813776081,12.94526848,23.01928347,57.19485131,31.4406978,50.39784967,16.78945988,11.45065402,4.240939592,-5.916292742,-6.912309898,-5.018272607,1.933193228,2.756560708
7.184639722,8.001847248,3.625041583,5.514337762,17.13380543,6.697078491,13.70125311,22.4894826,53.37346331,31.55971546,50.39580049,13.66348289,12.44983894,4.985857117,-7.28160391,-8.896929045,-5.639858815,-0.334364575,1.07049101
4.737449628,5.7539412,-1.012990461,-0.77449191,16.90725966,5.493750286,15.25600094,22.99316175,48.29047089,32.23495307,51.79941128,11.38203882,13.97467701,7.441117298,-5.241372628,-9.76482686,-5.573758866,-2.105862029,0.256644569
1.875082183,4.425201594,-4.480150035,-1.541760937,14.8147456,5.064564025,17.35920891,23.83876023,43.82094,32.53247209,53.74859604,12.25058064,16.26658065,11.29417696,-0.514617661,-8.854402924,-4.656947991,-2.850727544,0.627012952
-0.87341718,3.821064475,-6.397286709,4.633412436,10.8474871,5.67562908,19.10806738,23.96602671,41.08911989,31.26783757,54.66719169,16.59311686,19.02358949,15.32440471,4.548039955,-6.681473583,-3.156536153,-2.657748438,1.617272538
-3.366997602,3.077200741,-7.459028634,15.20325012,5.82635107,6.844337325,19.52308975,22.58772766,40.23645949,28.06118497,53.58326124,22.49703542,21.47314339,18.12078688,7.589397779,-4.640251571,-1.625555341,-2.144310263,2.245636504
-5.801386043,1.441150872,-8.599643634,24.73569266,0.999038638,7.750188063,18.24640121,19.66400621,40.76217726,23.86992018,51.02008564,27.12489634,22.80326442,18.93697483,7.865389244,-3.989484235,-0.575075761,-2.012836488,1.941582105
-8.293065408,-0.99371839,-10.06847067,27.91866557,-2.547654257,7.863903458,15.82009714,15.92185403,42.0100189,20.47431048,48.66747016,28.56372313,22.65390143,18.0840324,6.652132482,-4.856189568,-0.145281741,-2.526942451,1.036860115
-10.50804331,-3.223859904,-11.21860095,22.51858995,-4.335016427,7.287359622,13.30463069,12.42453264,43.42028736,19.21514326,48.03845843,26.85846579,21.31952108,16.59238136,6.113729916,-6.060359348,-0.023070609,-3.302681999,0.476418065
-11.73733478,-4.053980054,-11.17604094,10.33342295,-4.588102047,6.556077432,11.51568415,9.985672373,44.5078717,19.93892568,49.20351207,23.61706719,19.53462354,15.41817594,7.488360789,-5.970786857,0.288276878,-3.614845639,0.977792783
-11.41901655,-3.058219829,-9.763168484,-4.294075039,-3.975189574,6.110012315,10.46948383,8.806266672,44.80589395,21.02599496,50.68991908,20.70168201,18.01972235,14.80642623,10.01413519,-3.77975063,1.02222936,-3.013320297,2.362608646
-9.668837532,-0.994901901,-7.804439838,-17.04196809,-3.172738465,5.902270203,9.466162437,8.531170989,43.98274755,20.56684414,50.68761382,19.10244347,17.11291889,14.28385144,11.47817428,-0.20322351,1.887300222,-1.756711423,3.657783783
-7.319923704,0.713921101,-6.481081694,-25.30153044,-2.51535451,5.47384264,7.732699618,8.6148376,42.07606876,17.83199704,48.58765642,18.73441405,16.70503308,13.24404214,10.01098874,2.978555032,2.250038265,-0.673419146,3.908009812
-5.370716213,1.070779997,-6.266486344,-28.08699868,-1.92193557,4.408991681,5.105985015,8.688445888,39.58955364,13.90190247,45.55807129,19.02701858,16.44974125,11.61276769,5.740129764,4.220588962,1.668035716,-0.513466678,3.015999134
-4.262387674,0.296724679,-6.398266451,-24.94951006,-1.10859212,2.760699648,2.220771303,8.675842563,37.28041271,10.94456638,43.64395045,19.58445297,16.04318242,10.02559381,0.973852045,3.352564454,0.35361899,-1.299258164,1.880267791
-3.58701508,-0.333960101,-5.425884976,-15.50125426,0.09013403,1.072619637,0.079017642,8.650235969,35.74754611,10.67744663,44.12235289,20.33540601,15.37955406,9.359324579,-1.306022269,1.6645606,-0.849265058,-2.231141668,1.685419488
-2.48854684,0.475127744,-2.449119883,-0.364026803,1.541575451,-0.019975304,-0.632507806,8.641614045,35.12962765,13.18772887,46.48258971,21.21460619,14.53697282,9.999386216,0.446966274,0.870656313,-1.023429295,-2.277873119,2.922467444
-0.439035507,2.950107144,1.971850981,17.32288447,2.917216898,-0.266400121,0.059643459,8.61225246,35.13602218,16.99134032,48.8742931,21.88155772,13.68035046,11.45405748,5.208781239,1.768909556,0.132184304,-1.012714892,4.957436309
2.249617216,5.971826933,6.031720367,31.69630715,3.992169928,0.048417501,1.56867438,8.619488385,35.34183127,20.22123257,49.61361874,21.86577697,12.9835065,12.65436533,10.07674956,3.651204736,2.036305384,0.979978092,6.515799416
4.601933277,7.857177138,7.903303211,36.39254897,4.883333743,0.395693805,3.260563314,8.969461668,35.46365794,21.95517993,48.44519162,21.0088483,12.59676297,12.72628169,12.27096261,4.913306724,3.628326367,2.485769831,6.689176898
5.694781627,7.59342105,7.012643656,28.3110026,5.994524932,0.478980721,4.875618845,10.13769888,35.39923119,22.63533151,46.50229468,19.70814051,12.62069895,11.63858728,10.96910975,4.364323884,4.151180567,2.557249185,5.642004937
5.324116319,5.561457245,4.360082692,10.36571843,7.665002549,0.48905569,6.539046094,12.43034865,35.08424457,23.32542686,45.07277547,18.63298167,13.05667436,10.22419986,7.672975825,2.197253531,3.702821283,1.227605783,4.454000309
4.092373048,3.195868951,1.663989156,-9.130803818,9.777150179,0.927861845,8.418374496,15.61608072,34.40999715,24.52207178,44.33172184,18.1176626,13.76063714,9.563544913,4.939524413,-0.127617759,3.116359709,-0.525631215,4.249510517
2.879238244,1.873934172,0.055257638,-20.66561791,11.65259431,2.154430464,10.37177166,18.84270305,33.35174941,25.57341523,43.20744701,17.80075015,14.45159951,10.20727763,4.503380361,-0.972217318,3.265580882,-1.539266824,5.331607996
2.156410244,1.915990089,-0.626228927,-18.92741294,12.37165476,4.028486322,11.89919196,20.97278732,32.17128307,25.19635889,40.49925113,16.89600527,14.78712326,11.81701973,6.171774996,0.269898982,4.355264905,-1.346874272,6.99712349
1.696860711,2.451708447,-1.435365894,-5.952114043,11.32611939,5.936219467,12.4216922,21.16120988,31.38835834,22.61861045,36.20420222,14.897418,14.46127475,13.45448659,8.185257748,2.747470395,5.761067758,-0.500706748,8.124736952
0.86478148,2.192895355,-3.258219749,10.11991552,8.618337701,7.1703701,11.64355232,19.30351566,31.38585186,18.33477727,31.78878683,12.08751739,13.27389725,14.24873742,8.611655649,4.778070204,6.529380378,-0.10816322,8.013202378
-0.807910912,0.452597545,-6.021907979,19.94172976,5.01858977,7.367711654,9.720391447,16.06537048,31.90803568,13.81123591,29.07828761,9.361177873,11.1709053,13.91852553,6.659632392,5.010413086,6.114771217,-0.976321027,6.804428188
-3.241069534,-2.380635337,-8.802233102,18.39046863,1.517910973,6.688381093,7.153583151,12.49630586,31.95065899,10.39607937,28.70490661,7.489769389,8.29625841,12.79812538,3.018259905,3.27132657,4.761718862,-3.034697753,5.230945565
-5.87764125,-5.204250676,-10.6341449,7.154363998,-1.192933052,5.642024639,4.550948415,9.506063672,30.32817165,8.385444976,29.50900694,6.476865162,5.061871119,11.43657637,-0.830328865,0.564761469,3.256246516,-5.441037115,3.993295715
-8.063135826,-7.013328826,-11.24612365,-6.912293017,-2.959468507,4.728537055,2.443009817,7.535104322,26.6374346,7.058286153,29.48979797,5.601785681,2.154755432,10.15417027,-3.637065991,-1.654362285,2.297087433,-7.217133046,3.316041425
-9.379591913,-7.485464803,-11.0832478,-16.28368796,-4.005728215,4.16284709,1.216547942,6.564962439,21.88470359,5.63154578,27.53461378,4.140351236,0.367430894,8.90885634,-4.967163337,-2.344429372,2.020868676,-7.879441919,2.988568061
-9.710916819,-6.950772515,-10.68157564,-17.07859928,-4.585027755,3.844748088,1.084696281,6.357584946,18.15049898,4.250916907,24.43185196,2.132406419,0.24035185,7.514741171,-5.066623455,-1.324442019,2.039189739,-7.609302128,2.736465979
-9.113659496,-5.921468806,-10.05152554,-10.63967317,-4.755410171,3.535195727,2.008963432,6.687867306,17.34522424,4.059475221,22.25711176,0.496654132,1.694011379,5.9524893,-4.355515125,0.843322476,1.886139524,-6.933617688,2.516536166
-7.725235393,-4.684788042,-8.684489739,-1.863336853,-4.434242848,3.073609551,3.613975656,7.411256474,19.86141842,6.172760842,22.62667804,0.349710075,3.934156653,4.468358894,-3.088780673,3.282674705,1.441333717,-6.270944587,2.478003176
-5.823403675,-3.302716848,-6.177511359,4.152022986,-3.612827747,2.488738396,5.235033571,8.388180912,24.13073842,10.38427351,25.30947376,2.081279938,5.793838648,3.383474353,-1.423919761,5.194166061,0.962538439,-5.730330396,2.697101186
-3.909173402,-1.910546411,-2.862719457,4.827886439,-2.477931783,1.964597376,6.17685979,9.403713038,27.51475207,14.76992981,28.39230863,4.958578957,6.370483063,2.80815771,0.318497948,6.047042943,0.745628921,-5.253411152,3.00701646
-2.596448209,-0.90786531,0.201565672,0.754225727,-1.304925878,1.718441611,6.071975918,10.1903834,27.99138913,16.71243744,29.85181857,7.590025853,5.553041735,2.535556001,1.589211932,5.642909937,0.770203592,-4.865956448,3.118650548
-2.270978634,-0.764779259,1.94206033,-5.555948225,-0.23212294,1.87260377,5.088983267,10.53998676,25.4778553,14.71309268,29.17334725,8.865965089,4.053742207,2.21813965,1.892572876,4.169324858,0.684901462,-4.744328104,2.908518039
-2.760066246,-1.583758129,2.089411624,-11.48344619,0.842803785,2.375812777,3.809212083,10.40162793,21.85289961,9.635092054,27.63723232,8.631176336,2.893014504,1.673885532,1.184045767,2.229228225,0.155414986,-5.029744604,2.56620631
-3.340087416,-2.852285399,1.376948193,-15.38954522,2.115904578,2.999969025,2.834920992,9.882359759,19.66081838,4.351538504,27.07819535,7.619592126,2.696978381,1.054473462,-0.007497474,0.711323727,-0.749873085,-5.598442899,2.428874674
-3.174793697,-3.697532232,0.915647999,-16.59546606,3.603174458,3.421411693,2.41089981,9.158944763,20.41200498,1.939773828,28.25898015,6.815195384,3.322131016,0.728785271,-0.903088533,0.426975073,-1.510165203,-6.052432455,2.648824404
-1.904674305,-3.508173066,1.262096269,-14.83741238,5.011628715,3.370622507,2.337645001,8.379402319,23.64917396,3.674362039,30.30064782,6.821843688,4.075038151,0.978556558,-1.018625563,1.652858798,-1.519166119,-5.98717566,3.023471869
0.066166297,-2.424799088,1.972582823,-10.03243388,5.916471171,2.78877923,2.220753098,7.622166043,27.35859932,8.251887752,31.62127339,7.692278663,4.327926206,1.758652561,-0.497758283,3.882710737,-0.578654073,-5.323296578,3.174934757
1.831667334,-1.264101115,2.021222215,-2.65973442,6.122415405,1.894966123,1.833553351,6.915320401,29.34093193,12.7800236,31.45296294,9.170394747,4.020921641,2.716539726,0.037354404,6.021696231,0.891659538,-4.413617915,2.925769237
2.605647078,-0.900639214,0.716551282,5.692491022,5.888725733,1.095352865,1.295736167,6.271395654,28.5371193,14.77181456,30.48784262,10.94480558,3.647908462,3.451792896,-0.007266384,6.967929916,2.105599887,-3.822724025,2.506219539
2.222240041,-1.593271128,-1.671193822,12.36108399,5.780243728,0.763876115,0.946609794,5.704918507,25.44836904,13.69049649,30.02525894,12.6228164,3.761453707,3.807310467,-0.744568156,6.23328409,2.421518415,-3.951180252,2.363404816
1.138628684,-2.804313803,-4.099251425,14.55845146,6.219667929,1.028014597,1.055384698,5.241699171,21.51933985,10.99932579,30.41702679,13.55568886,4.436543883,3.967101022,-1.759723448,4.198503766,1.711441802,-4.794555752,2.715555102
-0.019312753,-3.655304597,-5.578910264,10.80962008,7.093900101,1.710086842,1.630455554,4.942421772,18.08381893,8.83168591,30.33205002,12.90727798,5.161385345,4.291878339,-2.478815445,1.8355363,0.327376054,-5.995435057,3.260795635
-0.958026413,-3.634633538,-5.926144795,1.961926912,7.758301391,2.470852398,2.471869024,4.929508166,15.67735402,8.394271541,27.68919746,10.14992071,5.252518957,5.021152965,-2.63036461,0.091206969,-1.252808203,-7.099469232,3.347405745
-1.845560965,-2.969777272,-5.81266589,-8.95096721,7.476156466,3.049699662,3.379136045,5.368934744,14.11944328,9.304088093,21.59441561,5.670986967,4.438726992,6.059820502,-2.426449506,-0.655081166,-2.772212946,-7.789733971,2.510997779
-2.999028639,-2.370503957,-6.108536073,-17.98143089,5.974486872,3.419822707,4.298198484,6.375417567,13.12964287,10.23225942,13.60691407,0.89238484,3.111729414,6.995541821,-2.344278492,-0.723282142,-4.257670198,-7.951563196,0.93607353
-4.448993784,-2.383940394,-7.102651428,-21.95996368,3.690072765,3.747052926,5.276062911,7.882953828,12.86572888,10.18677877,7.093956791,-2.406343372,2.025980289,7.328510781,-2.721005563,-0.817825328,-5.799988175,-7.609349765,-0.573809044
-5.788954272,-2.920752037,-8.25916354,-19.70683764,1.514476715,4.202571145,6.29468422,9.586232046,13.90507107,9.336913609,5.003593338,-3.196157407,1.699036782,6.759120986,-3.509119987,-1.525722775,-7.3006482,-6.880257697,-1.135774819
-6.44400807,-3.349388764,-8.683643662,-12.26891901,0.232187963,4.79536751,7.1760571,11.03668344,16.68067557,8.755581602,7.762439862,-1.906187682,2.015257175,5.354921704,-4.380549539,-2.975698368,-8.438627197,-6.013166075,-0.423910391
-6.114257622,-3.062441505,-7.873796302,-2.300026359,0.068849338,5.361086259,7.674737351,11.86657786,20.8372188,9.390567499,12.98908257,-0.113932135,2.35762648,3.505225703,-5.063029228,-4.849457142,-8.888673943,-5.422147491,1.103010457
-5.004978982,-2.022304032,-6.125929878,6.949882503,0.656578269,5.699453708,7.68168951,12.00098,25.06038991,11.18844434,17.2774006,0.612962755,2.144664755,1.703614166,-5.599437545,-6.671888801,-8.586460924,-5.568748977,2.55633744
-3.661199559,-0.824886019,-4.299548892,12.64768766,1.388070642,5.725320476,7.345669952,11.70396234,27.60929335,13.1099293,18.63923237,-0.158685795,1.318060343,0.295769337,-6.292907229,-8.130180949,-7.797392048,-6.678664221,3.257782317
-2.575993131,-0.238444911,-3.185792991,13.25141232,1.85192784,5.502163887,6.991222935,11.41688251,27.28435049,13.99037596,17.69540732,-1.526437645,0.388003982,-0.657250437,-7.371308106,-9.192543369,-6.927443188,-8.48156802,3.15620706
-1.917064232,-0.612468705,-3.009416836,9.162165701,2.03070185,5.151088392,6.904313765,11.49827072,24.23094066,13.49241319,16.77258176,-2.118900122,0.028803833,-1.324760227,-8.651900193,-9.976563857,-6.243064555,-10.22819085,2.727209984
-1.571001942,-1.640318834,-3.413665796,2.866319824,2.175324664,4.748690585,7.179230035,12.04280419,20.03089844,12.35035797,17.78014555,-1.287740113,0.584968405,-1.906227243,-9.511583401,-10.51242648,-5.73821602,-11.06535627,2.501439018
-1.395562661,-2.641823619,-3.842871545,-1.851555501,2.526909782,4.32508407,7.752868159,12.88637546,16.94430449,11.72794333,20.663607,0.385270238,1.8873802,-2.427597291,-9.245698828,-10.61833238,-5.245916261,-10.55857606,2.648475962
-1.395476364,-3.096787285,-3.947665809,-1.702959423,3.131217795,3.952132286,8.561442612,13.75885301,16.68755354,12.25594153,23.6276886,1.680736123,3.479406792,-2.686048248,-7.592727494,-10.0105906,-4.674093987,-8.992905575,2.941127022
-1.651709963,-2.979783965,-3.711611251,4.019353055,3.856698201,3.796645905,9.631049433,14.44943232,19.45036404,13.55692699,24.7739007,1.890735763,4.997086152,-2.397172354,-5.042545234,-8.581554204,-4.145173385,-7.213604824,3.060962318
-2.109712867,-2.655458178,-3.305729365,12.42812668,4.536897977,4.03042593,10.98576179,14.87429639,23.75472493,14.61898077,23.65489565,1.489812318,6.350357004,-1.447741193,-2.660549611,-6.631004745,-3.916047708,-6.103131806,2.91919005
-2.489015849,-2.486862877,-2.902002916,18.21209313,5.08471586,4.637463432,12.4600014,15.04345542,27.27618422,14.65101564,21.45101517,1.703414026,7.579859404,-0.060108656,-1.484114244,-4.840518752,-4.154040027,-6.063235814,2.701483216
-2.456872009,-2.536893338,-2.629566834,16.78219847,5.505607306,5.298975623,13.63345647,15.00596087,28.15993198,13.66909154,19.76393209,3.318938927,8.587258732,1.282734806,-1.863324204,-3.945596618,-4.76791126,-6.857787311,2.638709448
-1.930184462,-2.619180547,-2.638362872,7.57950097,5.857435376,5.518104037,14.02211723,14.83960942,26.04109632,12.34069894,19.21779959,5.777564391,9.05221021,2.130931102,-3.198344995,-4.283422376,-5.44050491,-7.886656076,2.765042847
-1.212302535,-2.611562692,-3.102705831,-4.864518668,6.235035139,4.955405888,13.41959622,14.67241544,22.14908812,11.28986881,19.12458363,7.391436303,8.656260965,2.380762578,-4.292910324,-5.518645355,-5.837271105,-8.640529036,2.91002941
-0.802867296,-2.700748924,-4.091744129,-13.33485287,6.781157295,3.739370876,12.11071567,14.67133277,18.45494398,10.53630893,18.41567705,6.596997553,7.422675624,2.3684065,-4.133138197,-6.770484207,-5.824611202,-8.98759059,2.914113688
-1.026719728,-3.298008556,-5.437313659,-12.61680962,7.647798332,2.486949588,10.75086324,14.96663771,16.43721854,9.591738292,16.86748285,3.26539789,5.848009005,2.657952958,-2.587114494,-7.111303798,-5.535209616,-9.125283734,2.821026399
-1.816686395,-4.6801825,-6.797214754,-3.345313902,8.860552545,1.970267886,9.976000053,15.56097293,16.27648643,8.105299578,15.42156438,-1.000154239,4.67339125,3.674222759,-0.535340028,-6.14163957,-5.246993012,-9.317274221,2.821222148
-2.85842643,-6.678565424,-7.936688962,7.900926309,10.16130481,2.645616606,10.04189441,16.30819799,16.97206086,6.411200438,15.29626269,-3.85833818,4.46264217,5.460702604,0.695200027,-4.262159656,-5.181410237,-9.679292282,2.979938853
-3.963976727,-8.715325254,-8.992217161,12.71413351,10.99220878,4.383643484,10.76953279,16.9909317,17.22662683,5.388400377,16.75495055,-3.772203891,5.325580607,7.744770992,0.239527649,-2.441561946,-5.367499618,-10.17587803,3.026507555
-5.302318863,-10.18934858,-10.41887358,6.543039036,10.71966032,6.591242158,11.80574203,17.4292718,16.42682849,5.670817949,18.74665641,-0.942799676,6.99044904,10.23250158,-1.670711767,-1.616103595,-5.647207812,-10.76410132,2.461027519
-7.222442869,-10.90175445,-12.56924988,-8.055166359,9.005302969,8.611559287,12.93250779,17.52010361,15.02692438,6.896702865,19.83350661,3.012736887,9.114174853,12.84923698,-3.801425833,-2.117737893,-5.789810707,-11.48913346,0.950749667
-9.784943021,-11.16137337,-15.21513889,-23.02704788,6.073990242,10.08196012,14.13015736,17.18198655,14.11495044,7.751030395,19.59242427,6.294823115,11.5150421,15.67892453,-4.69915673,-3.516881323,-5.625345984,-12.41301171,-1.302373625
-12.4317137,-11.47189917,-17.45834102,-30.22993559,2.662327887,10.99322664,15.35090956,16.29433609,14.53926166,6.918139206,19.15844286,8.066751176,14.10811115,18.62567402,-3.638476207,-4.976727165,-5.124851903,-13.45240417,-3.561840827
-14.16321881,-12.05594892,-18.21208503,-26.74706829,-0.34607149,11.46611118,16.2600027,14.74670239,16.25409,4.235610304,20.27846637,8.6877118,16.6300581,21.10474266,-1.088551644,-5.852077005,-4.409475465,-14.31556403,-4.974624984
-14.17594105,-12.61684654,-16.95775579,-16.29994367,-2.355681938,11.50135689,16.26365671,12.60453143,18.32566303,1.05349579,23.58462825,9.011518793,18.4700084,22.11017627,1.606446595,-6.095266908,-3.707570836,-14.64724609,-5.104364431
-12.48692229,-12.55065947,-14.20126557,-5.92625276,-3.270640036,10.95622253,14.88965018,10.24495422,19.53078773,-0.631540053,27.59208482,9.461039303,18.85484841,20.73385023,3.084637612,-6.184583006,-3.281397027,-14.28818171,-4.171302726
-10.02121275,-11.45215193,-11.2391966,-0.680478375,-3.370639892,9.763639901,12.23568613,8.281687239,19.08222378,0.308023702,29.43215522,9.669898652,17.32073741,16.82506431,2.754973115,-6.652932515,-3.335421033,-13.42614394,-2.828590395
-8.036840125,-9.511520068,-9.371425088,-0.490091145,-2.99996027,8.160352624,9.078865404,7.252639497,17.00393083,3.153806338,26.91168823,8.915100981,14.11731609,11.30041294,1.00727728,-7.592005676,-3.922752794,-12.48769747,-1.679659833
-7.294367623,-7.474939886,-9.132731743,-1.389789418,-2.338155432,6.661781131,6.482476145,7.274028377,14.00082696,5.754187769,20.32639138,6.878436131,10.19834146,5.814407771,-1.208349924,-8.514913417,-4.883269549,-11.83612028,-0.929121758
-7.597441999,-6.178380305,-10.09208931,0.259790224,-1.406722466,5.747842384,5.153321297,7.954096625,11.02545666,6.09952956,12.54945282,4.047054024,6.759121694,1.951517336,-3.034819715,-8.677253932,-5.85208211,-11.5093697,-0.408095597
-8.04352893,-5.991462397,-11.30418556,4.31640726,-0.23342029,5.504036358,5.033230962,8.687440786,8.868985864,3.871564312,7.229120093,1.434079298,4.631786821,0.455009592,-4.097380134,-7.604795481,-6.353706603,-11.20099497,0.124422529
-7.762097324,-6.571805825,-11.98883869,7.091553964,1.039406711,5.536749076,5.439417681,9.130480022,7.965680506,0.740484341,6.406857371,-0.101945901,3.950577693,0.984799317,-4.428243803,-5.425535179,-5.957126789,-10.48424617,0.719945017
-6.544457224,-7.091120222,-11.88776129,4.951651402,2.235909783,5.268737705,5.630979288,9.466129242,8.385392259,-0.855125464,9.318049706,-0.356282191,4.274245853,2.51023909,-4.136381191,-2.76318321,-4.437402501,-9.085820153,1.246724582
-4.887643057,-6.749000513,-11.09121147,-1.950789525,3.340215752,4.395563818,5.341527561,10.20193577,9.897069728,0.497513838,13.20876752,0.2743258,5.001257472,3.9989181,-3.203162008,-0.28620123,-1.886394801,-6.999109998,1.603969925
-3.472291474,-5.205424257,-9.615873211,-9.151098823,4.59111495,3.130469219,4.866354772,11.634113,12.04868654,4.228326005,15.4559977,1.269858236,5.729564522,4.904181008,-1.592034897,1.740419945,1.268761248,-4.392030607,1.881030034
-2.548372879,-2.66388446,-7.211063282,-11.11155185,6.341906042,2.026861702,4.679355044,13.42915453,14.29423846,8.401479565,15.34351773,2.430220909,6.327573219,5.185117564,0.490382332,3.570197498,4.35982181,-1.45194392,2.272723387
-1.743135222,0.378227627,-3.611876527,-5.536727113,8.767972109,1.515812474,4.942592741,14.72578566,16.18024163,11.36073322,14.21741623,3.909188613,6.764309518,4.996051482,2.514165388,5.686142736,6.678715666,1.654158468,2.832390421
-0.423665317,3.460498627,1.000838644,4.845939826,11.6621376,1.537378912,5.330984291,14.7429912,17.5039089,13.01610325,14.06166421,5.854334523,6.934461677,4.413398418,3.886032858,8.333695779,7.738572677,4.670058874,3.336267294
1.716319419,6.309015587,5.801952882,14.46657803,14.50145404,1.572733695,5.292825294,13.42779487,18.31321701,14.68958957,15.72126438,8.004917983,6.659192395,3.449904252,4.357209575,11.2182847,7.494502237,7.137939385,3.444431958
4.333368041,8.738946683,9.638173739,19.10923208,16.74230547,1.057509727,4.486342178,11.58872723,18.72749953,17.65162155,18.16202083,9.614969642,5.831618961,2.275737599,4.198631677,13.57844608,6.39910997,8.467624781,3.046054218
6.611252575,10.47197781,11.6508887,18.56660517,18.10642107,-0.151765166,3.010055922,10.3505187,18.73588155,21.60554683,19.25655805,9.789356124,4.527479399,1.340290001,3.936939737,14.58059911,5.217781115,8.21848588,2.45638579
7.758748116,11.09976273,11.71406182,15.72173738,18.63503527,-1.623373762,1.269316971,10.33234251,18.18922622,24.47277863,17.40367604,8.003112657,2.955842531,1.179165638,3.843547486,13.77820383,4.656984689,6.41303956,2.222638096
7.427862403,10.2860684,10.34961053,13.27799572,18.49900293,-2.617840983,-0.336270632,11.21490948,17.0374781,23.79243633,12.73663183,4.461824245,1.310944012,2.012752574,3.629613139,11.36221939,4.994433005,3.626666785,2.643842699
5.782802975,8.074409003,8.234181993,11.38444242,17.76718243,-2.558876115,-1.584742446,12.07027378,15.6002376,18.70877031,7.093466895,0.094200226,-0.297972084,3.491165884,2.661066103,8.082658873,5.935741561,0.742440032,3.407962507
3.273265633,5.042845327,5.748869639,8.360923499,16.3587656,-1.357048662,-2.331225726,12.19861782,14.55399384,10.9709081,2.8829955,-3.799567329,-1.745309048,4.866917321,0.561682072,4.917780312,6.803034212,-1.486954225,3.707194571
0.376683864,2.129399627,2.943250508,3.587763726,14.21871242,0.612997402,-2.316292553,11.7721438,14.52377936,4.074128669,1.714004244,-6.059776803,-2.728267953,5.520754478,-2.298457111,2.682074128,6.94776656,-2.77731962,2.81084983
-2.492687666,0.18379901,-0.130262662,-0.651154122,11.53390074,2.796398895,-1.18315212,11.71976935,15.54160039,1.083169419,3.674129639,-6.125668512,-2.77293031,5.432559535,-4.884651071,1.751821641,6.122671833,-3.337156083,0.668271263
-4.945176912,-0.488881082,-3.113926275,-0.734574866,8.758142997,4.745227833,1.204371579,12.91110824,16.8405326,2.686261285,7.559836741,-4.275278267,-1.516085323,5.185744713,-6.151079683,1.990725235,4.572292361,-3.606639449,-1.956656459
-6.631306738,-0.297139422,-5.438000837,4.329063821,6.384839891,6.214977524,4.39557542,15.30142569,17.25608056,6.855111081,11.69543326,-1.549670502,0.897896033,5.454348842,-5.780632811,2.8555587,2.801641265,-3.943825505,-3.966059824
-7.405449852,-0.124807888,-6.770531664,10.34808573,4.640883589,7.085318695,7.330298205,17.76600877,16.01862033,10.29226521,14.7135803,0.647064026,3.642948917,6.361257342,-4.425924276,3.60585891,1.211659332,-4.49169115,-4.674761463
-7.508227635,-0.825565953,-7.394907747,10.01394483,3.358253656,7.269026057,8.817048861,18.80739802,13.34740618,10.57488476,15.89074349,1.14805132,5.493622212,7.240319725,-3.253324968,3.53808504,-0.127062267,-5.271554588,-4.249542775
-7.529421506,-2.754974549,-8.09220743,-1.125459543,2.1331963,6.736106384,8.23722498,17.60391982,10.3511957,7.504384285,15.05806663,-0.43885539,5.462286833,7.04163041,-3.147351693,2.188129228,-1.415838748,-6.344382773,-3.508631769
-8.061946963,-5.607382987,-9.531215644,-19.47094626,0.639435029,5.617341622,5.953829339,14.57799083,8.271112681,2.869862685,12.3813768,-3.552509587,3.388077325,5.107384791,-4.190344933,-0.530890686,-2.866211584,-7.839859684,-3.259592102
-9.25130518,-8.620894898,-11.64510557,-33.94154162,-1.158790657,4.237802669,3.08425924,11.04430254,7.640990797,-0.988248033,8.266640638,-6.995450131,0.064726501,1.726771934,-5.780026869,-4.277985939,-4.462614853,-9.802390503,-3.710632972
-10.60743991,-10.98858354,-13.55799891,-33.09755015,-3.041580618,2.983711165,0.780351934,8.237312302,8.020417976,-2.679769571,3.411266503,-9.586657849,-3.196227458,-1.980261372,-7.210671974,-8.339978423,-5.930927281,-12.0014801,-4.403652313
-11.29346791,-12.21664468,-14.20433664,-14.0449293,-4.735844836,2.074194008,-0.454944086,6.502224534,8.484595,-2.356328705,-1.178405865,-10.757504,-5.277307882,-4.797630057,-8.18610974,-11.80234355,-6.909883766,-13.91711543,-4.673387393
-10.73213199,-12.24839721,-13.19504154,13.87704629,-6.070350941,1.425834827,-0.924944742,5.268442863,8.423288154,-1.220461229,-4.388140818,-10.7239646,-5.77975888,-6.238694208,-8.850794068,-13.81384981,-7.164073599,-14.97582938,-4.216725991
-9.084205809,-11.35086265,-11.23260185,34.22615716,-6.948698921,0.741232755,-1.314947063,3.760322469,7.955210322,-0.531165479,-5.422235601,-10.16267682,-5.068422727,-6.858914732,-9.392678178,-13.87544318,-6.674391518,-14.89351692,-3.30448783
-7.212418547,-9.903660245,-9.699865268,34.30612546,-7.215825002,-0.234900779,-2.088968956,1.799496969,7.62425135,-0.860748794,-4.2447359,-9.670063219,-3.903270708,-7.831196867,-9.660933754,-12.04232635,-5.577728693,-13.86848728,-2.504361555
-6.126371031,-8.247391033,-9.698349926,13.91821637,-6.622382585,-1.498647311,-3.20972468,0.01065709,7.695587892,-1.975892049,-1.732002495,-9.418498698,-2.983028267,-10.1006679,-9.208125699,-8.932254346,-4.064226043,-12.46670409,-2.200863227
-6.308890159,-6.653615805,-11.260551,-14.55626106,-5.003156644,-2.788418228,-4.358979317,-0.726924986,7.731437678,-3.20626299,0.650244016,-9.234944718,-2.703816018,-13.72899919,-7.752823373,-5.506409049,-2.350674295,-11.27640697,-2.33956586
-7.422843706,-5.364583905,-13.33653448,-34.85006637,-2.554873514,-3.80022964,-5.38719132,-0.098938128,6.868322449,-3.931419277,1.551566729,-8.973685425,-3.195079145,-17.87682933,-5.647690862,-2.708397798,-0.734524784,-10.58955475,-2.589102181
-8.606413211,-4.610115141,-14.55755821,-37.74026719,0.053151237,-4.431479926,-6.544238013,1.25234282,4.567508879,-3.918474657,0.448146618,-8.828180146,-4.466114693,-21.39803445,-3.903053429,-1.139719019,0.38136148,-10.34325969,-2.733515084
-9.117271677,-4.559784724,-14.19122001,-26.14125574,1.912063121,-4.84966958,-8.275184213,2.095082455,1.158356076,-3.442804344,-2.093561232,-9.305947815,-6.464672485,-23.59478288,-3.685712545,-0.940431268,0.594284259,-10.34270464,-2.918889989
-8.837104196,-5.249867484,-12.5861967,-11.07142477,2.349828952,-5.338452871,-10.7769119,1.443632566,-2.337630929,-3.201760238,-4.824261061,-10.89063221,-9.004098431,-24.60751291,-5.653599396,-1.917654605,-0.293287299,-10.55835475,-3.532657275
-8.283375717,-6.556924223,-10.82815595,-2.385341395,1.322499435,-6.062146352,-13.72508919,-0.780791197,-4.965896424,-4.005255207,-6.670932199,-13.6722984,-11.68483261,-25.21163692,-9.610787085,-3.799274086,-2.12738058,-11.22993152,-4.834413628
-8.168787213,-8.247136404,-9.930202248,-1.921994029,-0.577431572,-6.946374622,-16.41487753,-3.730953052,-6.50509146,-6.274423925,-7.46694514,-17.23140818,-13.95711331,-26.21810027,-14.68216638,-6.4090407,-4.460802684,-12.66843201,-6.674390443
-8.878908125,-10.05941301,-10.18565974,-4.14899901,-2.512393732,-7.756163438,-18.18318254,-6.203588525,-7.440035667,-9.571035623,-7.997066152,-20.83627163,-15.33698589,-27.91973684,-19.78828271,-9.63425644,-6.802589933,-14.9011428,-8.547660154
-10.25675991,-11.7537618,-11.11539249,-2.851529256,-3.904066056,-8.277961415,-18.74758537,-7.333217406,-8.282961457,-12.53958262,-9.270965321,-23.77402403,-15.63594655,-29.94352042,-24.0261585,-13.23920274,-8.875425702,-17.4521102,-9.934440618
-11.80606742,-13.10261216,-11.9521534,2.500982057,-4.69042555,-8.438164633,-18.21122913,-6.946110084,-8.912153396,-13.50959482,-11.55210583,-25.58332845,-15.03954682,-31.55698283,-26.75958168,-16.72190767,-10.67810537,-19.47164917,-10.64048166
-13.09761401,-13.87624819,-12.22955895,6.333553779,-5.189924223,-8.275338686,-16.81574715,-5.456081604,-8.615477914,-11.54543757,-13.93841187,-26.10236142,-13.98780069,-32.17386102,-27.56201318,-19.39277771,-12.31246491,-20.17683929,-10.87373622
-14.0434615,-13.89608791,-12.04799153,2.575051922,-5.743485561,-7.834590949,-14.74672238,-3.530465898,-6.88114931,-7.270349762,-14.92958559,-25.41783325,-12.95509466,-31.70711951,-26.28150995,-20.67484457,-13.74238171,-19.32688709,-11.03151636
-14.85717143,-13.16583357,-11.90498256,-9.017130793,-6.456100201,-7.121212502,-12.19614753,-1.819793343,-4.234130769,-2.775879457,-13.6296822,-23.83081509,-12.2724563,-30.55945878,-23.28168671,-20.42865377,-14.71805734,-17.41076977,-11.40156009
-15.78822962,-11.9888959,-12.30580253,-21.70323348,-7.230049039,-6.173072806,-9.572305998,-0.84481193,-2.267813999,-0.497585349,-10.63419651,-21.84159179,-12.06071131,-29.29732084,-19.58755839,-19.05705292,-14.95293963,-15.40704893,-12.00900475
-16.87876013,-10.93803195,-13.46081745,-26.99394998,-8.001247379,-5.168280369,-7.543523962,-0.926616837,-2.656940158,-1.721180576,-7.786947321,-20.0537247,-12.24249797,-28.24896904,-16.60032932,-17.2950212,-14.40483718,-14.25800163,-12.67605395
-17.93196385,-10.6198703,-15.22023331,-21.74547091,-8.912167612,-4.423015335,-6.732627306,-2.050751582,-5.841888218,-5.748127976,-6.853682689,-18.94588163,-12.57586537,-27.29103429,-15.37622565,-15.8198839,-13.39821815,-14.38340223,-13.17892697
-18.68414871,-11.33336576,-17.18535034,-10.8584906,-10.22992061,-4.224676656,-7.240708631,-3.741856798,-10.45297252,-10.33891733,-8.099928769,-18.62509004,-12.70766482,-25.9493137,-15.92518699,-14.94069323,-12.44442917,-15.51972472,-13.35242322
-19.01272857,-12.83771279,-18.85628486,-3.133216599,-12.06710179,-4.610732363,-8.424211625,-5.154270121,-14.02597276,-13.13395476,-9.972919283,-18.77451376,-12.29207341,-23.73853087,-17.12591197,-14.54616907,-11.87793737,-16.94573599,-13.10582663
-19.01023088,-14.41515295,-19.74990591,-3.843786446,-14.15655353,-5.287379272,-9.211062632,-5.469689225,-14.54694176,-13.04183272,-10.29140142,-18.89980233,-11.17843311,-20.52421393,-17.46285739,-14.28603147,-11.60441616,-17.91063889,-12.42821534
-18.88516893,-15.23577456,-19.51881517,-10.51275171,-15.89814306,-5.793317502,-8.800320752,-4.406740972,-11.69894384,-10.6567645,-8.104954262,-18.72301384,-9.56888641,-16.68432091,-16.1326955,-13.80978333,-11.18738503,-17.98438376,-11.44598879
-18.79028416,-14.82158531,-18.09875446,-15.58735299,-16.6708138,-5.81624738,-7.226110298,-2.465278796,-6.92617581,-7.555339295,-4.714126839,-18.40634952,-7.996600698,-12.97421784,-13.69457023,-12.9066782,-10.2295751,-17.15140637,-10.47492522
-18.71779781,-13.31909596,-15.81870203,-13.63910429,-16.18669903,-5.430725177,-5.325292544,-0.664847,-2.371062519,-5.1651004,-2.885171781,-18.39628901,-7.068113294,-10.17739937,-11.71551338,-11.53159234,-8.754866715,-15.67190985,-9.936655539
-18.52823415,-11.39720666,-13.34888884,-6.653901157,-14.63806934,-5.07064055,-4.114728205,0.080968258,0.419856667,-4.102296764,-4.715410186,-19.00176256,-7.102259438,-8.747827949,-11.62081046,-9.804579128,-7.278323065,-13.87796915,-10.10130143
-18.07019787,-9.825362652,-11.43450072,-2.559195863,-12.55995987,-5.248170236,-4.073157675,-0.49571886,1.071901759,-4.322807396,-9.787240401,-20.07545239,-7.922174789,-8.64367761,-13.60048152,-8.03157855,-6.487432646,-12.05806414,-10.81470677
-17.29098284,-8.995949348,-10.52778484,-8.050588288,-10.54184631,-6.22275333,-4.907172958,-1.964176753,0.009114759,-5.66403374,-15.16914011,-21.10182173,-8.981912745,-9.423924799,-16.40985572,-6.670587533,-6.75982655,-10.45156445,-11.471628
-16.26314652,-8.693717417,-10.5427818,-21.90863609,-8.996726143,-7.853838234,-5.972027601,-3.643666489,-2.287034249,-8.085038419,-17.43852155,-21.63659117,-9.764855648,-10.51601483,-18.22112019,-6.130382632,-7.87113127,-9.257499047,-11.35864216
-15.12514572,-8.259054036,-10.90194618,-34.82154318,-8.098693815,-9.721735512,-6.958609285,-5.167396399,-5.617227594,-11.35798551,-15.26562674,-21.70374113,-10.16717928,-11.47448956,-17.87395609,-6.432521389,-9.104627368,-8.568828715,-10.18341555
-13.99489394,-7.045150631,-10.8538128,-36.29013448,-7.845757448,-11.40033836,-8.230995478,-6.704294764,-9.777930688,-14.6560495,-10.54665077,-21.76474009,-10.57115224,-12.09086884,-15.58790258,-6.984470364,-9.680896946,-8.262120814,-8.389158088
-12.92568843,-4.888675345,-9.866342622,-23.10224143,-8.136940028,-12.67442866,-10.50575464,-8.696409642,-14.13269432,-16.7044194,-7.125370814,-22.2568179,-11.54488629,-12.3424039,-12.65589056,-6.763825307,-9.208800202,-7.978686995,-6.950004814
-11.93576535,-2.306212904,-7.875583755,-2.359396167,-8.808502374,-13.57078952,-14.14212451,-11.38807278,-17.69003955,-16.63929314,-8.015084052,-23.12158444,-13.39691368,-12.27788214,-10.44596246,-4.962056247,-7.870348807,-7.303417013,-6.725874047
-11.0848147,-0.290609301,-5.294407835,13.5408548,-9.664008615,-14.23310946,-18.66034992,-14.57484472,-19.79203596,-14.92055183,-13.23549325,-23.80450856,-15.9260438,-11.95103252,-9.532116777,-1.722169089,-6.257656557,-6.080189711,-7.830544983
-10.5294254,0.18815685,-2.839864104,15.94395177,-10.54683565,-14.77516549,-22.92091612,-17.76412668,-20.79765895,-13.36722783,-19.91896933,-23.79857355,-18.54552934,-11.43244901,-9.578518718,1.617787585,-5.009871817,-4.636865601,-9.508680304
-10.49243495,-1.295266714,-1.298243117,5.75240425,-11.42893412,-15.22184784,-25.83991756,-20.54811355,-21.98665948,-14.00710413,-24.55851495,-23.26767456,-20.66113577,-10.84278735,-9.926213029,3.12416913,-4.492414021,-3.695548553,-10.65464511
-11.13504519,-4.366692337,-1.301850594,-8.387864467,-12.4216093,-15.54087226,-27.06674518,-22.81152369,-24.54277711,-17.49108388,-25.59167722,-23.11944642,-21.99520423,-10.33593754,-10.27223703,1.452188371,-4.686079135,-3.954890957,-10.60667432
-12.39978648,-8.011736841,-3.131073682,-17.53416789,-13.65052725,-15.68986365,-27.09154903,-24.59101166,-28.36699484,-22.3703001,-24.29506594,-24.31594461,-22.62297966,-10.02689565,-10.84222351,-3.166985494,-5.298037902,-5.6034233,-9.617420067
-13.94279771,-11.0703189,-6.563435487,-19.06093847,-15.06541993,-15.61955577,-26.73460274,-25.77323526,-31.78414568,-25.97955906,-23.37127388,-26.9035483,-22.74671387,-9.931338406,-11.97736581,-8.896380903,-5.986458965,-8.125934047,-8.639240537
-15.2434738,-12.79663204,-10.85021412,-17.14040973,-16.35136549,-15.25012695,-26.47212206,-25.99725989,-32.56904876,-26.37537606,-24.4837911,-29.6047998,-22.44678745,-9.982860102,-13.59317088,-13.34311176,-6.560472075,-10.58126199,-8.592340709
-15.86552948,-13.1699696,-14.91073803,-17.38199009,-17.05781681,-14.48404356,-26.14790468,-24.92840341,-29.6117912,-23.81754259,-26.80495925,-30.46628734,-21.63760136,-10.11551489,-15.05164452,-15.0043153,-7.05879258,-12.17656788,-9.683779457
-15.7154321,-12.78098779,-17.72811805,-20.95874453,-16.8818137,-13.28281034,-25.25039775,-22.67554379,-23.91655244,-20.54216828,-27.74791019,-28.21509681,-20.24465758,-10.32370071,-15.58051707,-14.09073083,-7.679832096,-12.71993709,-11.29377912
-15.10715664,-12.37384927,-18.76694876,-23.66827691,-15.88645071,-11.75375334,-23.44604833,-19.91939528,-18.07389893,-18.92961888,-25.22417748,-23.32098758,-18.40755107,-10.6245444,-14.86874681,-12.15409622,-8.607204102,-12.61630068,-12.48821014
-14.5530149,-12.34565414,-18.16270745,-20.62182894,-14.45855245,-10.1543226,-20.88029483,-17.53269877,-14.54338014,-19.52726564,-19.52475499,-17.8778796,-16.49157286,-10.95027067,-13.32081491,-10.85269006,-9.833546711,-12.43713371,-12.72706848
-14.40133113,-12.53998078,-16.55281014,-11.96948911,-13.01434347,-8.775271616,-18.01863759,-15.94072761,-14.04471025,-20.5747194,-13.268436,-14.28080714,-14.8707284,-11.09206293,-11.76894164,-10.84177523,-11.10504214,-12.44919642,-12.210446
-14.58276342,-12.47729977,-14.66534658,-4.012465879,-11.68183678,-7.769873678,-15.23608855,-14.76572667,-15.26803718,-19.47482611,-9.470468244,-13.62356122,-13.65851849,-10.79602016,-10.90903889,-11.63217715,-12.05298374,-12.52246758,-11.62402754
-14.6772878,-11.85537318,-12.95848739,-4.196416622,-10.22657112,-7.05796602,-12.56949298,-13.11970112,-16.04525958,-15.02561791,-9.304687645,-15.00539175,-12.61803426,-9.971908818,-10.92078534,-12.42656932,-12.45065357,-12.49812184,-11.53626528
-14.28135655,-10.94083674,-11.55273396,-14.14846084,-8.295549367,-6.3888163,-9.852551829,-10.37276185,-14.97518929,-8.552406762,-11.33090158,-16.27041798,-11.33646065,-8.838077118,-11.51235812,-13.11083988,-12.41187863,-12.65750208,-11.95495202
-13.40538945,-10.52571669,-10.44844106,-27.03526044,-5.787868743,-5.526911998,-7.064767126,-6.786746871,-12.22241687,-2.964709159,-12.73099533,-15.61957427,-9.536534555,-7.836068217,-12.24135317,-14.45793003,-12.34579553,-13.78320065,-12.38020472
-12.57169245,-11.42605149,-9.779918447,-32.08022971,-3.047994227,-4.428907051,-4.5209432,-3.467839856,-9.003262252,-0.498978088,-11.50079892,-12.8885591,-7.302133009,-7.330791867,-12.78004638,-17.31352934,-12.64597051,-16.61510434,-12.2617256
-12.48724951,-13.84847225,-9.836567817,-22.95874841,-0.719309712,-3.287668746,-2.697380738,-1.634748136,-6.405801375,-1.034300078,-7.878239156,-9.581341647,-5.082565742,-7.323244492,-12.95553457,-21.47853553,-13.32282915,-21.05357261,-11.44975169
-13.49741395,-17.08484289,-10.80622809,-3.271005382,0.628105007,-2.421684878,-1.861695725,-1.771310434,-4.672862177,-2.408152201,-4.015118703,-7.729293479,-3.511383375,-7.441868527,-12.6898296,-25.35502909,-13.89227173,-25.78475307,-10.27408696
-15.22721167,-19.79669165,-12.47248759,15.52319609,0.806756464,-2.098351957,-1.878959065,-3.339371703,-3.522893842,-2.471700506,-2.326643407,-8.512009973,-3.174397627,-7.272726589,-12.05784764,-26.83477401,-13.68094208,-28.77839211,-9.227683278
-16.71177347,-20.74615999,-14.17684288,22.21202105,0.040639755,-2.411332242,-2.399908191,-5.265184168,-3.040110735,-1.124897389,-3.883702638,-11.65343429,-4.425642256,-6.785104999,-11.46884507,-24.84145959,-12.37654853,-28.45515694,-8.561576819
-16.96671516,-19.50783237,-15.15381694,13.59038135,-1.25941361,-3.271406939,-3.2511893,-6.769395089,-4.103027629,-0.54414732,-7.970888853,-15.8932703,-7.257940885,-6.473237507,-11.70189662,-20.29458634,-10.39996141,-24.74058401,-8.141057035
-15.61535748,-16.69530906,-15.02495362,-4.105138218,-2.750435057,-4.47980488,-4.618544863,-7.838091608,-7.757703983,-3.313498649,-12.86642732,-19.96850902,-11.20938723,-7.021088519,-13.53429555,-15.63125867,-8.745985821,-19.20971488,-7.656364309
-13.1336777,-13.5630491,-14.0714678,-20.76643604,-4.23641354,-5.80959253,-6.782960986,-8.964218589,-13.98101352,-9.954915043,-16.98549086,-23.24120957,-15.35615943,-8.690381116,-17.0703536,-13.15020412,-8.329431842,-14.14660449,-6.967341983
-10.54497477,-11.26158707,-13.04743263,-30.03069315,-5.563891711,-7.047762149,-9.604096748,-10.43456202,-20.96622391,-17.92612512,-19.48257656,-25.56732951,-18.50282309,-10.91371159,-21.28812966,-13.41730914,-9.295155293,-11.14612317,-6.262813159
-8.788280913,-10.23369813,-12.64128011,-32.70469615,-6.507198606,-8.006632562,-12.24393114,-11.83419333,-25.74542596,-23.0192353,-20.11094657,-26.75031101,-19.61045091,-12.48128767,-24.33053316,-14.97130502,-10.84468276,-10.24347755,-5.899798758
-8.19981245,-10.10445949,-12.9676665,-33.7198402,-6.809893375,-8.539908608,-13.48285161,-12.24325892,-25.8779963,-22.17333832,-18.83751035,-26.27626445,-18.30579341,-12.27303507,-24.54868153,-15.55928144,-11.77337682,-10.16946052,-6.075194554
-8.432805534,-10.0612328,-13.45731577,-35.9701421,-6.369400391,-8.577862886,-12.48635868,-10.9846488,-21.0063805,-15.57954567,-15.77348433,-23.68990221,-15.15553632,-10.0386015,-21.63619105,-13.92132584,-11.3523077,-9.483553199,-6.61878485
-8.805634959,-9.41242853,-13.2256044,-36.83168388,-5.381630006,-8.159657653,-9.453606029,-8.28429626,-13.11390848,-6.516675095,-11.45060246,-19.2827533,-11.45318209,-6.639992879,-16.97122806,-10.71972672,-9.879699198,-7.691492244,-7.077221222
-8.780125575,-7.962186468,-11.66702344,-30.48204476,-4.274799424,-7.431316005,-5.608514522,-5.260289243,-5.297998524,0.877264927,-6.967770559,-14.38040222,-8.568221376,-3.54596506,-12.79210184,-7.917565164,-8.449322283,-5.512747719,-7.007452548
-8.238193046,-6.033410887,-8.885559736,-13.85529524,-3.452090582,-6.602941726,-2.485406262,-3.213187447,0.017921317,4.165635131,-3.601631959,-10.80431733,-7.238971748,-1.926831104,-10.73152077,-7.166679738,-8.091186709,-4.16624155,-6.240265778
-7.432341067,-4.225925874,-5.703489139,9.155953347,-3.049956171,-5.887508823,-1.014712862,-2.767268077,2.170804825,3.676954113,-2.051508184,-9.801985508,-7.271843234,-1.999226826,-10.79180742,-8.532986029,-8.951287913,-4.314495617,-4.93223877
-6.735986618,-3.115584185,-3.265040844,29.09138605,-2.917203078,-5.44479108,-1.066038208,-3.522284837,2.035872201,1.553541153,-1.97016454,-11.24684557,-7.836494175,-3.065735666,-11.54807379,-10.55155909,-10.16284598,-5.529648121,-3.419918293
-6.413737535,-3.039412787,-2.468650695,36.92512275,-2.820808078,-5.333088668,-1.729830549,-4.441504618,0.934750022,-0.165664824,-2.280931787,-13.74363133,-8.108146854,-4.146706736,-11.40372045,-11.47343599,-10.5131398,-6.664241132,-2.035052476
-6.533751722,-3.985121276,-3.512426681,29.86175859,-2.671933027,-5.463127162,-2.037734923,-4.611569492,-0.329127689,-0.819473565,-2.081865235,-15.56242612,-7.754965555,-4.656987422,-9.867113631,-10.60202727,-9.367320703,-6.749972996,-1.015843634
-6.987142692,-5.551427573,-5.750269702,12.48981884,-2.546327569,-5.573006541,-1.524203532,-3.762378558,-1.629436106,-0.933546021,-1.344033264,-15.67388069,-6.918502208,-4.599094881,-7.799549272,-8.615283676,-7.105614733,-5.647186378,-0.509461922
-7.520635009,-6.996798759,-7.920631331,-7.092462499,-2.4764137,-5.273912985,-0.248231015,-2.208303081,-3.002502168,-1.078446117,-0.734339185,-14.12287398,-5.776078211,-4.198111231,-6.451470003,-6.695014963,-4.739140096,-3.941036309,-0.563531291
-7.759999858,-7.44703556,-8.679127093,-22.52211357,-2.231689591,-4.201474451,1.596483192,-0.388008747,-4.139027552,-1.006601562,-0.689611657,-11.5738681,-4.137899702,-3.3972011,-6.146541863,-5.319037692,-3.053645674,-2.262399116,-1.049616622
-7.292601246,-6.273447849,-7.242052437,-31.559355,-1.345868974,-2.229351108,4.015577487,1.523547915,-4.411263611,0.139562425,-0.628099522,-8.556638043,-1.500901612,-1.739643881,-5.801515655,-3.82681151,-2.014667128,-0.699572801,-1.593748231
-5.860371733,-3.491998317,-3.848200386,-34.51125932,0.56522131,0.386471453,7.145182973,3.611271246,-3.353525426,2.844507933,0.836969175,-5.129985614,2.432950754,1.208049188,-3.774772399,-1.145817418,-0.927207373,1.156165948,-1.653387783
-3.585511698,0.085019055,0.249071891,-31.3319338,3.436842069,3.070900326,10.87522054,5.920807976,-1.067162677,6.477421395,4.686165261,-1.217652886,7.216534437,5.261218068,0.6198182,2.988108921,0.815300947,3.596594279,-0.783263082
-1.042851681,3.137190889,3.356684443,-20.94681797,6.670530144,5.22092714,14.5962246,8.232372706,1.857230154,9.546521141,10.27342908,2.80688779,11.62659601,9.429504832,6.23284153,7.443994246,3.068592271,6.223120808,1.054932337
0.955168882,4.484704979,4.2421722,-3.694070211,9.450983345,6.568408971,17.41027535,10.1623528,4.793368482,10.76501873,15.27097181,5.974374863,14.29374123,12.40825442,10.67530696,10.33687116,4.959809763,8.011289132,3.382202557
1.785769809,3.735745999,2.838702771,15.81505211,11.24281933,7.36265709,18.70848508,11.48742367,7.437757814,10.00739979,17.07987354,7.297883774,14.59184863,13.43951816,12.02582284,10.42659187,5.592317505,8.04513826,5.42440295
1.380536951,1.512059925,0.264284669,29.12496494,12.07574809,8.209404841,18.63947194,12.34627038,9.747295939,8.349675626,14.75190496,6.645885265,13.11802521,12.87280482,10.32150781,8.127079527,4.827540573,6.328119542,6.548060274
0.252291347,-0.919906665,-1.926843279,28.63813735,12.39221023,9.638111874,18.03633523,13.09151862,11.61087629,7.205904115,9.909402722,5.107925837,11.35629703,11.94109394,7.608139474,5.272161952,3.456935669,3.949780802,6.606544557
-0.859015906,-2.388982738,-2.794423661,13.44775826,12.59972814,11.68388521,17.81443001,13.91972438,12.70915312,7.331798716,5.828967071,4.392999127,10.72324234,11.87195523,6.443863444,3.799003231,2.59377662,2.390611562,5.946639358
-1.472778429,-2.453363169,-2.624256442,-8.597316787,12.72038175,13.78904695,18.3099577,14.64460881,12.80426227,8.501560859,5.272610033,5.606233696,11.66731291,12.99198845,7.988499594,4.388513105,2.786333392,2.466973693,5.088435197
-1.62933358,-1.534285025,-2.629167586,-25.03260534,12.43680525,15.11770311,19.08993234,14.85427756,12.18112768,9.999090201,8.654735272,8.337820734,13.45771754,14.51071643,11.15772912,6.114469496,3.60099178,3.743119982,4.348404683
-1.745350651,-0.512573193,-3.931413381,-26.70251086,11.47533966,15.08152721,19.36720581,14.31716165,11.68545344,11.34589356,13.88699422,10.83940686,14.78080839,15.15348471,13.49075406,7.311816981,4.030092272,4.883513962,3.706242939
-2.204592,-0.114142924,-6.590733381,-13.80093807,9.961100522,13.71844254,18.64740694,13.23972599,12.11757709,12.56516766,17.93972504,11.24305611,14.67130224,14.15989429,13.04220485,6.903192729,3.380976421,4.672980685,2.991570243
-3.028444928,-0.512712677,-9.447266175,4.486053303,8.404202272,11.67009871,17.0630846,12.10176218,13.40655884,13.81777968,18.86667995,8.945402419,13.09927877,11.89197566,9.837081269,5.123746027,1.897853799,2.910255114,2.182125201
-3.884388054,-1.365685554,-10.93597677,16.50639373,7.314681698,9.790942541,15.15752206,11.20518815,14.36040971,14.89166703,16.79785972,5.115827943,10.84934483,9.611328555,5.817044368,3.161902868,0.600096157,0.505905004,1.51309372
-4.392507433,-2.161664964,-10.25572369,16.02948565,6.792768271,8.673027975,13.3802296,10.37980677,13.42249664,15.15725609,13.35167505,1.939420944,8.886334131,8.623201398,3.405799645,2.149503088,0.484484146,-1.232099167,1.282666406
-4.439149094,-2.563403421,-7.966334517,5.852877032,6.479849321,8.401234661,11.79225164,9.176232934,9.987711567,14.10583453,10.20085748,1.160489772,7.749988028,9.439608032,3.849031433,2.401052994,1.76337001,-1.513967058,1.536859529
-4.2187903,-2.507264422,-5.521855725,-5.096340219,5.936732492,8.655517079,10.2419152,7.413532618,5.206102392,11.95849507,8.063760495,2.997136018,7.407167505,11.5451597,6.548270873,3.465518204,3.754209587,-0.478263922,1.952501896
-3.984434519,-2.069119741,-4.104845016,-8.556674688,5.118351479,9.018236214,8.789025086,5.560173824,1.45784756,9.693088119,6.803683583,6.169685006,7.553875799,13.85052938,9.73389597,4.774753108,5.464271012,1.1308379,2.072921246
-3.759155236,-1.299968147,-3.713075066,-2.502825201,4.499745605,9.226876113,7.887986298,4.506371623,0.715407431,8.345543267,6.22004961,8.913546045,7.991586771,15.41142822,11.78140658,6.17078227,6.333135388,2.632002629,1.719063979
-3.300553173,-0.217332972,-3.265852313,8.184123421,4.696399987,9.208576349,8.055757127,4.816382091,2.992031684,8.139670501,6.532250744,10.13595619,8.704871886,15.86759438,12.10549828,7.799340055,6.503083667,3.808093048,1.198937324
-2.37631627,1.049661734,-1.66402075,15.75113879,5.872998467,8.939998791,9.267533472,6.077562997,6.144913374,8.228013564,7.993300488,9.867743768,9.60532369,15.36718777,11.08428015,9.538876215,6.442873701,4.750733313,1.073634359
-1.108440342,2.138310757,1.07328274,14.96413665,7.451727173,8.313750691,10.66128611,6.985765041,7.313756948,7.341268655,10.06704329,8.807937407,10.25719316,14.18545617,9.339449841,10.63278546,6.334012664,5.405383754,1.621815503
-0.048652268,2.530862791,3.579824501,6.195953226,8.409855691,7.157031626,10.94519756,6.236373882,4.985431515,4.852601681,11.17590209,7.49439969,9.942285741,12.44645581,7.156533791,10.02934824,5.821147051,5.342290359,2.452451035
0.143008455,1.837824704,4.090623776,-5.269096787,7.971039377,5.389768768,9.307455151,3.576661429,0.133238896,1.368259683,9.583123111,5.860475173,8.115242053,10.17912374,4.535557954,7.24943773,4.369772137,4.036722037,2.657260813
-0.801291136,0.096181243,1.861300039,-12.60161785,6.155865344,3.175904608,6.131303131,0.144630136,-4.446769966,-1.675573733,4.87561312,3.514440924,4.915713084,7.581950382,1.666651804,3.030204858,1.898522549,1.427243323,1.475197354
-2.480972299,-2.153424802,-2.081969433,-11.17091099,3.75730293,0.924622956,2.880899313,-2.272694831,-6.110405428,-3.100577075,-1.227903359,0.407116467,1.28564571,5.166992684,-0.796133878,-0.914501711,-0.917440216,-1.784821474,-1.013396128
-4.032476218,-4.10173437,-5.515771004,-0.847849904,1.766214735,-0.876110571,1.145884062,-2.555816899,-4.180628239,-2.871534194,-5.652910869,-2.78469886,-1.490218067,3.575953699,-2.057694199,-2.957630402,-2.996184259,-4.43921661,-3.745083409
-4.700354518,-5.086584018,-6.531657693,13.8354997,0.705853938,-1.878969115,1.524578533,-1.120591486,-0.30535717,-2.061433603,-5.98175618,-4.965132429,-2.551283558,3.181395038,-1.858871075,-2.655106198,-3.595472017,-5.641832265,-5.286046802
-4.35735026,-4.92756762,-4.844485347,25.5653794,0.382764336,-2.00495818,3.20512062,0.385151629,2.797154088,-1.946495059,-2.248505896,-5.403254061,-1.998904339,3.807027411,-0.846283829,-0.99290542,-2.835184889,-5.33809082,-4.810773994
-3.57738626,-3.97270755,-1.895923389,27.59801356,0.196923891,-1.418691072,4.591538561,0.363463386,3.183311775,-2.988894697,2.913696489,-4.346681116,-0.808597894,4.822965787,-0.190462452,0.432584505,-1.552990593,-4.26246733,-2.726068069
-3.198997462,-2.841674838,0.308341757,17.42186471,-0.303237208,-0.404752053,4.509849775,-1.46395733,0.78814332,-4.522713337,5.990516896,-2.933255018,-0.167470338,5.564388746,-0.682563593,0.644846618,-0.61690786,-3.307624277,-0.437079928
-3.703565767,-2.039344132,0.701217812,-1.126068649,-1.099546588,0.752639317,3.069685038,-3.807476317,-2.83898629,-5.346302257,4.942239632,-2.430452529,-0.700104903,5.754076682,-2.058338932,-0.066969744,-0.277069661,-2.841996145,0.618028344
-4.870939069,-1.679266334,-0.175888812,-19.08402153,-1.847026716,1.82586088,1.525594133,-4.795878243,-5.737248767,-4.685749481,0.469660607,-3.367990898,-2.113034165,5.610025494,-3.165867977,-0.586455803,-0.090577371,-2.53682789,-0.026785831
-5.960776125,-1.472964001,-0.821421066,-27.12716995,-2.289517315,2.650340037,1.266568417,-3.432454203,-6.690236059,-2.747939728,-4.682307124,-5.205249523,-3.469616429,5.582585855,-2.892733895,-0.074968468,0.554366168,-1.81436569,-1.564267795
-6.272058932,-0.975334089,-0.166069346,-21.47674613,-2.535590473,3.129918503,2.734326385,-0.384690918,-5.628142509,-0.491916623,-7.745258327,-6.747655949,-3.855373084,5.962983036,-1.100113671,1.233459378,1.80676524,-0.490455698,-2.542277376
-5.659683748,0.069650593,1.444585406,-6.944264172,-2.942958883,3.261305001,5.100339143,2.495566541,-3.295419581,1.086089174,-7.690537535,-6.958621549,-2.946272726,6.687813985,1.228058284,2.244148127,3.180912983,0.973061613,-1.949569535
-4.634639885,1.491668746,2.475660674,5.700363341,-3.73795767,3.149187671,6.913083688,3.523119937,-0.696978836,1.517887924,-5.499227837,-5.56033998,-1.113149575,7.473840289,2.763703573,2.033463604,3.985997436,1.832425618,0.052546549
-3.991725378,2.714917485,1.447754554,7.005164605,-4.743442246,2.972370087,7.171402346,2.34023746,1.247192394,0.879535488,-2.981014696,-3.049569684,0.936096902,8.127378588,2.891757194,0.781399341,3.954531738,1.711727427,2.282472828
-4.248841121,3.047312945,-1.805391916,-4.109298967,-5.484790516,2.900747303,5.987068339,0.018926591,1.831704504,-0.596187307,-1.297244356,-0.242282209,2.651579745,8.73217268,2.147532734,-0.256918015,3.487126662,0.944857834,3.424162815
-5.29844652,2.093799067,-5.872093025,-18.94803823,-5.591910526,3.012011866,4.374512279,-1.89803324,0.725470293,-2.826813443,-0.400979498,2.212629922,3.90250841,9.541569146,1.659837855,0.211112177,3.275010612,0.28380378,2.949527007
-6.498986416,0.059750634,-8.699331596,-24.9705412,-5.138381683,3.264866177,3.412409868,-2.596333791,-1.7584138,-5.774911504,0.343262824,3.990576474,4.866171325,10.67215637,2.085424605,2.310702947,3.625629544,0.215476439,1.387452624
-7.117266078,-2.253554832,-8.999106575,-15.13997655,-4.607109099,3.543186693,3.481549362,-2.478091437,-4.546860893,-9.062670032,1.161792769,4.92833618,5.711868266,11.88102688,2.977651651,4.67451506,4.101894516,0.498158511,-0.211542859
-6.803529868,-3.796771328,-7.054389272,6.26617616,-4.500172428,3.733002254,4.151780064,-2.6159915,-6.180915998,-11.76100006,1.545927351,4.85221797,6.382809326,12.64971708,3.178666442,5.365235614,3.834643529,0.363844226,-1.134691069
-5.78610794,-3.791100898,-4.359228148,26.09838118,-4.92437283,3.778545816,4.719363333,-3.696128702,-5.642784574,-12.68599538,0.915071378,3.672555863,6.657564775,12.54352482,1.941762919,3.390964277,2.288869983,-0.739948238,-1.486958131
-4.683369158,-2.122946384,-2.442619781,31.58440296,-5.505320254,3.693086181,4.876902171,-5.347155136,-3.100062682,-11.08258745,-0.419558684,1.693002186,6.413296998,11.57549207,-0.176269446,-0.370639992,-0.148003185,-2.489586317,-1.935024979
-4.085674007,0.621407733,-1.817282881,19.57649262,-5.696198311,3.539366653,4.943807414,-6.388402977,0.073651321,-7.200644359,-1.028649807,-0.21662052,5.834677785,10.27698178,-1.482283637,-3.612137986,-2.276010101,-3.708535718,-2.976822285
-4.189627559,3.498440423,-1.821818155,-1.224289581,-5.208301593,3.404523876,5.501565484,-5.761857933,2.15347047,-2.303390189,0.714819913,-0.905851527,5.356796764,9.387919858,-0.353832844,-4.133849954,-2.859384208,-3.138787548,-4.379678824
-4.704896105,5.707157675,-1.372672817,-16.77941104,-4.195696837,3.374194624,6.788917966,-3.37870289,2.223756001,1.940533603,5.212294362,0.361081457,5.355707576,9.36809486,3.413786563,-1.36539587,-1.498705298,-0.400947303,-5.272194254
-5.063486478,6.936254145,0.060874959,-17.94578992,-3.052664338,3.494864642,8.393133651,-0.2185497,0.757474777,4.288078277,10.90083667,3.25846468,5.821700893,10.07651138,8.20102465,3.235754736,1.062503003,3.608329668,-4.820497793
-4.776253231,7.372503678,2.051757783,-6.612380942,-2.025091621,3.73037135,9.500358662,2.360574754,-0.854859162,4.455949389,14.92570565,6.340909966,6.288498486,10.85831011,11.48991173,7.172502837,3.429541881,7.222288091,-2.931358851
-3.71286387,7.426887331,3.644068579,6.725065875,-0.994931676,3.952108596,9.494598852,3.534395494,-1.450581532,3.087667861,14.85356888,7.750538332,6.111327539,10.99567313,11.4927057,8.534969128,4.481797604,9.062700377,-0.401554692
-2.154879055,7.413369768,4.184384168,11.63999146,0.362974643,4.005146284,8.419172982,3.454881466,-0.976892412,1.272005377,10.22520665,6.306842127,4.922840446,10.22276378,8.30796279,7.10867492,4.066394679,8.878798257,1.614366647
-0.623466057,7.402337118,3.832241538,5.65678081,2.185427277,3.837780161,6.945219043,2.946380151,-0.391100251,-0.039840637,2.854138766,2.270569078,2.948360032,8.953879963,3.784865394,4.269926494,3.002368429,7.573398266,2.395869646
0.388858245,7.297110246,3.346319233,-4.68483537,4.137153495,3.605561255,5.895130751,2.765667741,-0.692867519,-0.413844145,-4.287606227,-2.749479734,0.945220984,8.061161766,0.244103603,1.896970033,2.45851994,6.450992563,2.088813915
0.623310144,7.004321601,3.374353017,-9.871603587,5.506723214,3.639459823,5.703955208,3.029821131,-1.941409141,-0.001045943,-8.758804216,-6.706953748,-0.212003378,8.334709599,-0.978540627,1.178558693,3.189485983,6.295944647,1.467057632
0.108577994,6.53168811,3.881898012,-5.231658054,5.642063968,4.247329191,6.211968283,3.223067054,-3.120663201,0.651821338,-9.77770627,-8.25411448,-0.033064673,9.967110083,-0.146502339,2.129093571,5.142232758,6.965648127,1.258760826
-0.916600204,5.958650754,4.21243674,5.795763921,4.409683809,5.455531818,6.8909208,2.712363242,-2.98529796,0.93809891,-8.201138602,-7.378691494,1.325033119,12.3922853,1.421078947,3.968488357,7.614668006,7.731763374,1.60480996
-2.125854265,5.36163718,3.718982368,15.08947585,2.33732821,6.881796356,7.273023021,1.324782198,-1.176214985,0.551362978,-5.632850994,-5.186001104,3.1916604,14.58662648,2.496678454,5.871113567,9.753289829,8.008052144,2.06970181
-3.199840262,4.80175723,2.416901964,16.55547359,0.333641905,7.872179659,7.238649152,-0.463485157,1.343417376,-0.284143871,-3.432064047,-3.058226777,4.802021704,15.65187469,2.779953888,7.436368333,11.00886654,7.841661013,2.139291016
-3.882511932,4.383655787,1.086021546,10.39211139,-0.823082325,7.855382706,6.984805053,-1.84694904,2.917107067,-0.879177109,-2.222367166,-1.801671889,5.71411657,15.32574213,2.874983526,8.621696213,11.29740592,7.798234504,1.733420486
-4.031062934,4.286209737,0.709514676,1.801960567,-0.8944829,6.696819918,6.77327588,-2.255399403,2.398504918,-0.495588304,-1.957874645,-1.318735092,5.966379057,14.11429016,3.59406295,9.400388671,10.87565842,8.399899962,1.275040475
-3.672204428,4.67654771,1.694961438,-4.011968211,-0.253547172,4.812729774,6.710960394,-1.740918189,-0.011858074,1.07944415,-2.215274225,-0.91637165,5.921677254,12.97645157,5.252799119,9.596266294,10.11400867,9.633521998,1.26810297
-3.020906247,5.551975221,3.519621186,-5.828022237,0.387338443,2.96165608,6.740441543,-0.917456372,-2.910750117,3.204621316,-2.417472712,0.072564627,5.959019374,12.76519673,7.504246294,9.082256473,9.337118694,10.95417395,1.782468275
-2.396248246,6.673419728,5.113460564,-6.091987912,0.403704119,1.853092581,6.808662468,-0.507179633,-4.639021732,4.646106484,-1.978724016,1.821540461,6.248813593,13.76891851,9.722833126,8.104153278,8.775795233,11.76719118,2.335590381
-2.030926337,7.713183783,5.700745631,-7.236124503,-0.395720374,1.830057248,7.025906346,-0.810835702,-4.271773968,4.386468369,-0.514849941,3.964403688,6.743486897,15.6159582,11.49311715,7.323898513,8.571195384,11.96240667,2.313987325
-1.88145101,8.541202383,5.438434238,-8.574880072,-1.66346663,2.805650029,7.648357348,-1.460226671,-1.97084026,2.465313474,1.881714376,5.903822256,7.330718908,17.56323393,12.75863358,7.428281578,8.768318478,12.03326102,1.588148307
-1.602047802,9.393204365,5.326961523,-6.902724669,-2.678025747,4.43182466,8.879249101,-1.62481893,1.385479867,0.178967356,4.540899019,7.195644935,7.979847149,18.94969418,13.58314064,8.58183169,9.294837277,12.6632002,0.768442511
-0.764556666,10.69984757,6.426820089,-0.197193081,-2.699420168,6.319443397,10.64033833,-0.558558607,4.824550083,-0.658542532,6.52342487,7.759158893,8.744879021,19.51467889,13.86599987,10.20564413,9.963193319,14.10512775,0.819737326
0.781540357,12.62974202,8.96195548,9.263472144,-1.36256388,8.137101068,12.49261534,1.843253537,7.623574032,1.008093568,7.240683504,7.843473152,9.628551211,19.40515207,13.36962537,11.3287337,10.52012515,15.85437988,2.288557909
2.667706729,14.6984744,12.00211111,15.65528045,1.076584937,9.569444301,13.77544718,4.83162511,9.253881669,4.559102857,6.918952164,7.838802462,10.43944332,18.92653346,12.06202483,11.27420737,10.72713145,16.88804002,4.753680019
4.111216839,15.8363623,13.99871725,13.99897735,3.791565722,10.26663138,13.88545403,7.104758562,9.236696005,7.894288678,6.444286195,8.059575144,10.78768895,18.26126317,10.40685508,10.13411521,10.43603535,16.30516917,6.978605491
4.361673594,14.99417589,13.81499504,4.52696396,5.75519162,9.924931293,12.54123458,7.489784265,7.264705044,8.733788945,6.599420783,8.579277727,10.2600449,17.37120799,9.220271845,8.639943927,9.637215447,13.90375419,7.709785856
3.208871123,11.91379163,11.51750456,-6.833499194,6.267099214,8.495544478,9.912850829,5.626308699,3.586114808,6.186773347,7.280894446,9.157183707,8.677684196,16.13365749,9.098720039,7.53692445,8.475360446,10.29514926,6.549301459
1.177881395,7.477411608,8.362272088,-12.49263471,5.346518045,6.356083045,6.584357598,2.238231782,-0.732237086,1.480956892,7.41953782,9.298569507,6.271982914,14.57108852,9.864047723,6.994276573,7.224724335,6.514907746,4.2503743
-0.768349156,3.297342661,5.986919108,-8.570937319,3.736506065,4.253063414,3.387272474,-1.196911912,-4.056662757,-2.715171427,5.810014238,8.478083388,3.657014416,12.9672024,10.55050123,6.557393635,6.207976828,3.447733884,2.209861735
-1.838155059,0.768560434,5.379874581,2.625792099,2.489074017,2.97589715,1.160842005,-3.210030407,-4.951947022,-3.965648869,2.259737333,6.470024713,1.594829541,11.76062965,10.05558663,5.680156748,5.664401993,1.472433508,1.532213135
-1.900440338,0.244531206,6.332075858,14.74424452,2.374546431,2.938486041,0.488586303,-3.089642815,-3.003643269,-1.615978676,-1.918765856,3.603364115,0.663502804,11.2879485,8.007912298,4.360623069,5.626225289,0.510161361,2.347048314
-1.493643278,0.941205843,7.704932965,22.04810579,3.483610357,3.945550286,1.471291925,-1.179015032,0.87017796,2.820869744,-4.620440969,0.720579867,0.98828767,11.56618538,5.160790977,3.290631264,5.895478918,0.330786374,3.847559371
-1.351728492,1.636805913,8.264333742,22.75398583,5.259954486,5.314828248,3.625587299,1.425439039,4.85213198,6.675343216,-4.44898521,-1.233193746,2.168366716,12.27416977,2.943477097,3.334478857,6.1707827,0.806455138,4.962707814
-1.81584102,1.627608339,7.46766606,18.79662715,6.90200608,6.285442082,5.998136271,3.537929637,7.137910481,7.822484197,-1.869345949,-1.788687827,3.446354192,12.94398681,2.460208343,4.742902812,6.261162784,1.9118346,5.121696602
-2.586564358,1.209748739,5.693234098,13.07448297,7.828643403,6.447102165,7.512905521,4.466883944,6.785880745,5.948507139,0.960842474,-1.303495255,4.058998699,13.22697799,3.688664864,6.779609357,6.231506166,3.535832295,4.55407712
-2.996612771,1.34361551,3.852699198,7.140958016,7.899791003,5.919107462,7.436872522,4.187322889,4.077466774,2.613228374,1.666024495,-0.7774078,3.613997504,13.06079115,5.50227618,8.136858909,6.350355868,5.349613103,3.972262929
-2.56570101,2.810371913,2.76210373,1.271445471,7.308585188,5.190332101,5.740969605,3.099995438,0.308634485,0.166819185,-0.625125323,-1.183730497,2.303119371,12.65029327,6.508879313,7.87301683,6.86198281,6.917475367,3.96132481
-1.378865333,5.558896671,2.74657017,-3.875985985,6.321329325,4.761212276,3.14313795,1.660077257,-2.784802335,0.289540113,-4.613831971,-2.750195904,0.821648248,12.30742008,6.063608761,6.149700032,7.764877599,7.999118579,4.578385646
0.012332315,8.754331482,3.685637042,-6.403390996,5.120094265,4.841472136,0.774778047,0.184200963,-3.700615344,3.071675385,-7.740358924,-4.714382424,0.012932825,12.27252935,4.687383602,4.170964904,8.797974011,8.787827526,5.432308007
1.062598375,11.44350971,5.325983047,-4.468964858,3.851246021,5.287134084,-0.370274791,-1.082909096,-1.747194611,7.116674248,-7.980674893,-5.768454612,0.423509206,12.61919028,3.602127809,3.348165835,9.670738251,9.843873578,6.097872939
1.666428742,13.25118921,7.512985965,1.483249872,2.756114825,5.777408207,0.094158411,-1.826145477,2.622175539,10.48316286,-5.178222049,-4.907812753,2.027951624,13.2631288,3.785422701,4.330004027,10.34851908,11.71473076,6.468777827
2.182837226,14.5281396,10.14016317,8.162927227,2.174001571,6.075278691,1.814233465,-1.690328253,7.871282915,11.81626833,-0.961488021,-2.092573446,4.290558683,14.02857616,5.292200308,6.640124502,11.12201894,14.4959757,6.756399898
3.039918355,15.86497181,12.92369986,11.75651033,2.343829858,6.185293364,3.953682655,-0.540264146,11.93158831,10.99524951,2.57358048,1.732450469,6.512902604,14.71645087,7.328037723,9.165999017,12.34922344,17.66015052,7.179141617
4.273491366,17.43170387,15.29101517,11.37794787,3.159449727,6.317390974,5.659664242,1.261110725,13.10440645,8.987602446,4.307827421,5.236717957,8.220216537,15.15407646,8.930441746,11.05369666,14.04883482,20.29676868,7.658905203
5.413912789,18.73585752,16.56856139,10.28282745,4.131471205,6.704050399,6.448565328,2.859757724,10.88629692,7.09261889,4.566941539,7.459945526,9.319550141,15.23723528,9.651692865,12.25489776,15.69818017,21.60516033,7.822050563
5.837224613,19.00965203,16.36619372,13.10480914,4.664273349,7.405967266,6.310815164,3.314495141,6.208074622,6.095112964,4.397120695,8.203569981,9.94831625,14.97100136,9.706870085,13.29887064,16.46999097,21.29959265,7.323807118
5.295020968,17.88219686,14.84866449,21.05627129,4.480997891,8.234979501,5.542685405,2.179173054,0.881957771,5.862401128,4.423178713,7.878116124,10.18468678,14.48856783,9.557807119,14.54353273,15.79627661,19.6648504,6.223457594
4.174505564,15.74830176,12.65080353,29.4163833,3.864900669,8.841491107,4.487376346,-0.146574401,-3.41120964,5.613456612,4.330763167,7.060437421,9.902588952,14.015433,9.38906671,15.61572134,13.84864416,17.27305956,5.078110294
3.255476271,13.51531176,10.48039758,30.20683972,3.494171591,8.912858106,3.385876024,-2.582216247,-5.908987986,4.646521557,3.37395021,6.173303682,8.919471764,13.77246879,8.97932244,15.58931521,11.5365025,14.61879406,4.640149027
3.143341224,11.94791772,8.712531572,18.57392602,3.959611435,8.36451658,2.403976457,-3.969676826,-6.806055027,2.997929972,1.357583201,5.480693605,7.307985737,13.85906688,8.063793622,13.80190185,9.968843128,11.95607349,5.356618703
3.821974669,11.16642222,7.283650293,-2.220891459,5.318397625,7.408551822,1.736741009,-3.718497112,-6.619352899,1.535854507,-0.87787863,5.237131329,5.563422492,14.18595342,6.804383938,10.62533817,9.742722757,9.41766068,7.028981495
4.671572613,10.7026799,5.937564293,-21.75347337,7.028687267,6.453348059,1.633861793,-2.068157794,-5.503736322,1.381003975,-1.975630846,5.691416407,4.41161309,14.50827042,5.870943587,7.488972504,10.5747673,7.242309806,8.881322846
4.925143025,10.0258984,4.58153872,-29.25500617,8.324969194,5.887982338,2.281158159,0.174631153,-3.158396801,3.050077609,-1.166640309,6.853577089,4.350630562,14.55214001,5.991893409,6.039510359,11.54520998,5.845891346,9.998305763
4.203618893,9.055217025,3.433520469,-21.2557082,8.75646319,5.878966699,3.628347212,2.195715333,0.595678694,5.969524025,1.019726391,8.268771542,5.284083661,14.17020133,7.3348369,7.033225669,11.76426365,5.621887748,9.847319408
2.737607728,8.216942606,2.844555547,-4.019581706,8.488132727,6.303916085,5.329892665,3.624377019,5.145618107,8.77856854,3.107882173,9.141006989,6.575854926,13.44059465,9.271149976,9.804024614,10.96117649,6.615784736,8.559660207
1.155404461,8.028711897,2.979038808,11.23127256,8.14905442,6.859305206,6.889627122,4.598321912,9.05726716,10.25395113,3.844994266,8.86481055,7.526746649,12.65084173,10.77712382,12.72217242,9.579472899,8.361312887,6.818345943
0.048859629,8.613028269,3.661308027,16.50517101,8.35362565,7.261029196,7.929787085,5.474470747,10.88730144,10.1765102,3.21539336,7.590076035,7.905912033,12.16632384,11.18118922,14.29707239,8.360766149,10.06355124,5.448506577
-0.346612962,9.587004615,4.537464519,12.16037023,9.25080701,7.392960557,8.386915567,6.456854743,10.25313081,9.449992702,2.431800009,6.289690912,8.089315427,12.24296439,10.65484565,14.09780564,7.785609192,11.04055297,4.967285182
-0.172619667,10.41659529,5.401371219,5.186567614,10.41101507,7.304312381,8.479830181,7.418665528,8.242463201,9.336896667,2.889911838,6.136220995,8.663914384,12.87830314,10.04228305,12.84372041,7.80829272,11.11458889,5.344203441
0.255392043,10.89518862,6.368903731,2.642328445,11.09805188,7.082224036,8.47344463,8.003230171,6.708638902,10.38916473,4.952997299,7.588050933,9.813868407,13.78721552,10.16834948,11.68839833,8.041218606,10.66298328,6.082437734
0.660245359,11.29666005,7.712944297,6.087223927,10.71000004,6.731252785,8.431850914,7.877494035,6.915269159,11.94108715,7.584206798,9.91860766,11.02265378,14.53440742,11.19331272,11.32659632,8.168120159,10.29065144,6.552518678
0.881672741,12.05716317,9.487270521,11.52473407,9.097161969,6.183214734,8.169108788,6.940330367,8.589109014,12.61875477,9.134514736,11.64745763,11.39111833,14.7720083,12.53278025,11.61738721,8.209280563,10.37427531,6.384455314
0.851429315,13.27886164,11.28751981,14.20532671,6.598185127,5.437314445,7.445771079,5.373686331,10.17211912,11.49809547,8.627270782,11.61717856,10.35643325,14.45740798,13.38170077,11.92789458,8.435310092,10.82205063,5.701744905
