Channel 1 - P4,Channel 2 - O2,Channel 3 - P8,Channel 4 - T8,Channel 5 - C4,Channel 6 - Cz,Channel 7 - Fz,Channel 8 - F4,Channel 9 - Fp2,Channel 10 - F8,Channel 11 - Fp1,Channel 12 - F7,Channel 13 - F3,Channel 14 - C3,Channel 15 - T7,Channel 16 - P7,Channel 17 - P3,Channel 18 - O1,Channel 19 - Pz
11.45896372,17.07536505,27.30106953,39.48094996,32.53016267,27.70014294,33.61883766,34.28600082,45.31455002,37.86138685,44.16281834,28.35567397,33.34240398,28.51238643,33.18222648,32.61110464,15.8559632,10.48442795,21.86375074
11.56350087,14.15142403,18.1895898,20.35979344,22.92548679,16.62188549,17.98124357,16.11809152,22.57808394,12.75718288,30.46077452,25.20233709,25.58184826,29.87760846,25.51418166,27.08973733,25.10768237,17.10140989,12.36386049
1.591222604,2.117177746,0.311455958,-0.736939686,6.410634651,0.865690881,0.897934247,-4.076185617,0.957136289,-10.03845156,14.81128651,13.12701036,13.21006513,20.9053874,9.610739518,12.20967822,19.69965454,11.15620891,-2.600257074
-12.12177971,-11.45688543,-15.99687474,-11.91385036,-6.388572573,-10.34329445,-8.061674484,-15.16311939,-8.653603994,-19.74069214,6.698729396,0.948225925,4.325063171,8.664276438,-3.747812709,-1.295888133,4.638579958,-2.48584022,-13.88998294
-21.27917891,-18.5954971,-22.10283425,-9.035832534,-8.284063057,-11.50193324,-5.027626627,-12.34151142,-3.229931926,-14.35004373,9.842203459,-3.580209748,3.791670832,1.118065763,-6.822850211,-5.409005526,-9.355730489,-14.27313503,-15.81143838
-21.36868561,-16.3433682,-16.66563469,1.88609038,-0.17545317,-4.190132294,5.924490251,0.129161863,10.85807145,-1.030762155,19.96109333,0.839527478,10.14434955,1.607172309,-0.041708039,-0.141724692,-13.80098223,-17.12837745,-9.680204741
-14.35431076,-8.258884917,-5.676867627,10.04149344,10.42354721,4.822908969,16.2515891,12.65736804,22.93820069,9.825251117,28.29726426,8.788674503,17.33782794,7.176491644,9.238085972,7.508801087,-8.139438754,-11.23917591,-2.046192254
-6.55095513,-1.148470976,2.631338742,8.557387889,15.43955326,8.954980131,19.24467746,17.32381485,25.65032392,12.02480525,28.16073288,12.9648392,19.72269977,11.6865855,12.98851077,9.727722482,0.95241696,-2.991401256,0.73365456
-3.617909969,0.160731134,3.786875692,-0.376862342,12.02308669,6.402170153,14.32320007,12.83540813,19.35772596,6.974265652,19.56759542,10.06090509,16.20634399,10.91949761,8.645111003,4.086984965,5.563002998,0.672214785,-2.81617435
-6.625147096,-4.047832765,-0.537085325,-7.992296683,3.830696441,0.624484577,6.38820614,4.144014413,10.48124473,1.076304857,8.64840843,2.995412809,10.45552964,5.577752875,0.398885648,-4.986469825,2.744856456,-2.309241456,-8.868145679
-12.00429985,-9.45107394,-5.059918849,-6.773877793,-2.624657562,-3.153766277,1.314333878,-2.226670565,5.734985298,-0.119931968,2.609036058,-2.036744375,7.346880329,0.080875068,-4.925181407,-10.23612333,-3.926852979,-8.135680986,-12.073323
-14.98042784,-11.64505653,-5.722950776,2.977862354,-3.204388163,-2.252654362,1.489933701,-3.041333252,7.152090008,3.902111965,4.360376191,-0.950168359,8.849863692,-1.428689773,-3.635084316,-7.507512169,-8.174554856,-10.98797536,-10.16270785
-13.449603,-9.585304028,-2.702114767,13.3416643,1.208425436,1.801373133,4.813448242,0.241369037,11.59948376,9.142601471,10.91640946,4.988696861,12.7348886,1.62502356,2.200896551,1.218978778,-6.577365239,-8.136798666,-5.586812511
-9.243582511,-5.884283378,0.548980537,15.5086899,6.296384645,5.224538382,7.404953113,3.920932817,14.47793603,11.23006884,16.44755378,10.61744746,14.9247776,6.241777369,7.117676747,9.83128234,-1.150431578,-2.015764227,-3.090683716
-6.109843535,-4.127507644,0.883230036,7.328286326,8.258899172,5.483837967,7.271266401,5.656151943,13.96346277,9.310086202,17.16684451,11.53371467,13.23304635,8.754527351,7.217313897,13.10615329,2.90537769,2.214901772,-5.518816773
-6.420799034,-5.745298848,-1.700644376,-4.748011711,6.640013064,3.271717442,5.724782333,6.025387578,12.14144978,6.41880371,14.005191,7.839589894,9.23143207,7.926958437,3.369935321,10.51512764,1.964769047,1.241915154,-11.44226776
-9.424602845,-9.058966477,-4.345949533,-11.01291884,3.931836174,1.469057072,5.625771458,7.086847073,12.42881265,6.346643017,11.14108916,3.826389586,6.770608467,5.626211886,0.078413435,5.936681327,-2.984061116,-3.678184369,-16.46306518
-12.2865408,-11.0524318,-4.215256386,-6.656512161,2.783314422,2.310976961,8.352251463,9.733559401,15.95914849,9.988566861,11.98548711,4.040895612,8.587929134,4.762794501,1.263539828,3.937042989,-7.480205624,-8.020391745,-16.89835102
-12.74001696,-10.09949697,-1.201832176,4.163033689,3.535562484,5.387566577,12.34729204,12.50040623,20.31125417,14.42056534,16.20566638,9.250230717,13.96824294,6.556127041,6.762744223,5.969063662,-7.640300028,-7.975977992,-12.67147492
-10.95221302,-7.247709083,1.948681161,11.80114998,4.190284738,8.157967876,14.48502129,12.88765724,21.66503009,15.41983329,20.25019276,15.78903198,19.37262915,9.586150865,12.51618544,9.566414537,-3.45539675,-3.610055412,-7.107707684
-9.109871124,-5.097332991,2.109657733,9.252858534,2.573466617,8.333376639,12.9057771,9.837780322,18.34628552,11.15341407,20.71025783,18.76344057,21.3539553,11.32631034,14.11770139,10.86408268,1.446210432,1.409381315,-4.041710412
-9.302928073,-5.435303127,-1.443128337,-1.931641029,-1.449497234,5.895505977,8.718390557,4.97207844,12.53819077,3.845367198,17.44754924,16.26476387,19.2159965,10.6023659,10.55803095,8.025644332,3.148829678,3.077049305,-4.814145696
-11.67899994,-7.74528205,-6.391314111,-12.95272556,-5.719086504,2.988949446,5.075260001,1.405049883,8.633546969,-1.946227896,13.7391951,10.95536339,15.26304632,8.684246333,4.973752376,2.66047937,0.842889179,0.394224919,-7.600993061
-14.43446214,-9.798898965,-9.35940417,-15.20134569,-7.617433922,1.913096835,4.502547614,1.203068905,9.675932753,-2.923919762,13.35937666,7.726137721,12.64763897,8.057315965,1.899122899,-1.733792632,-2.667885303,-4.007087827,-9.370887749
-15.49523028,-9.667567509,-8.712869709,-7.545038869,-6.269846084,3.108537115,6.8686245,3.767519431,14.95188572,0.488054393,17.18050441,9.501959337,12.80805522,10.04762913,3.485217972,-2.716747686,-3.629600318,-6.304015754,-8.562723184
-14.29595756,-7.338756628,-5.744064998,2.722583413,-3.17466605,4.933431163,9.722067121,6.54603508,20.71048532,4.748581224,22.26113757,14.78544291,14.63494197,13.47529283,7.881438205,-0.675413817,-0.712277408,-4.751783397,-6.173305168
-12.11251954,-4.60078861,-3.334917409,6.11356598,-0.818740165,5.337382021,10.59116542,7.366492868,23.25755865,6.203511735,24.22355109,18.959271,15.84196418,15.54389379,10.98420705,1.891426865,3.848381065,-1.009559922,-4.527536027
-10.78393266,-3.435852565,-3.401820274,-0.862728525,-0.609005662,3.835101283,9.147052579,6.27470093,21.72466391,3.927918336,20.91152261,18.15045734,15.10847622,14.1701832,9.889087732,2.681213657,6.221581507,1.438995084,-5.051571273
-11.07547497,-4.400223516,-5.391043364,-12.44412364,-1.933398945,1.973900447,7.350648232,5.277595679,18.27661939,0.161929465,14.25498027,12.3706557,13.06661472,9.717133539,5.101283822,1.38557585,4.243563198,0.258689015,-7.088492141
-12.14737739,-6.344905919,-7.038155008,-18.07453771,-3.030080278,1.902586773,7.554875748,6.320506415,15.85660416,-1.794938421,8.805808071,5.390730395,11.42323672,4.670854025,-0.175694319,-0.430082497,-0.844999561,-3.90826673,-8.683867349
-12.5033239,-7.564175313,-6.561601416,-10.93123533,-2.710043049,4.367987019,10.326454,9.394988916,15.64707664,-0.316850807,8.189112753,1.626979706,11.22566067,1.617892487,-2.801703368,-0.980259616,-5.548734074,-8.139100856,-8.451673889
-11.45057539,-7.239751306,-4.261977616,6.4588328,-1.322676812,7.951037199,13.92003411,12.49504701,16.4649081,3.431086832,12.38283006,2.746529394,11.94286379,1.301359923,-2.050655664,0.177737575,-7.007594853,-9.648876785,-6.760330248
-9.713427115,-5.920796585,-2.143276395,23.99835351,-0.18428828,10.21532703,15.80664866,13.42690281,16.40872511,6.725252244,17.95591638,6.738219439,12.1374438,2.35338884,0.290118898,1.98493613,-5.117192859,-7.818911332,-5.242512411
-8.690962744,-4.755104483,-1.99669725,31.55349189,-0.154695385,9.735969487,14.84409148,11.80472546,15.03020631,7.640948318,20.91283636,9.965728079,10.97307124,2.766768043,1.81994282,3.037302984,-2.222836661,-4.2883397,-5.219282591
-9.107738268,-4.312828483,-3.73013805,26.03613989,-0.781303593,7.228702261,12.17860885,9.425115011,13.93427094,6.52887696,19.73111418,10.23931602,9.07087831,1.691407954,1.539408478,2.836695772,-0.901738597,-1.325184327,-6.554289034
-10.32306903,-4.116043654,-5.431865981,12.56574559,-0.809562585,4.835815571,10.15902673,8.693341151,15.26718448,5.514001583,16.19920596,8.299542868,7.917471876,-0.004122018,0.273925956,2.019987555,-1.883029916,-0.0486956,-7.933794206
-10.91353316,-3.236965622,-5.062195022,-0.56005638,0.476289995,4.258123907,10.30342679,10.51772275,19.54204512,6.612417009,13.61066071,6.688707538,8.428049391,-0.750001328,-0.562125525,1.544321234,-3.805861987,0.058060548,-8.180780062
-9.963724828,-1.310647017,-2.233991223,-8.282930793,2.40486226,5.39148695,12.12041164,13.54009826,24.86114384,10.09469251,14.01831654,7.273296168,10.05250256,0.195995085,-0.439512268,1.769614599,-4.759232859,0.217319856,-7.288060456
-7.876961529,1.034317493,1.477213787,-11.13873002,3.411389412,6.610712023,13.73921469,15.36023793,28.30924709,14.34966688,16.83112679,9.678250365,11.27425201,2.125410124,0.009475754,2.328168812,-4.033258599,1.089494228,-6.222064708
-5.989907155,2.721323489,3.905516325,-12.20067923,2.457904945,6.356218386,13.67442476,14.64850142,28.31351352,17.19041532,19.70836696,11.87032231,11.02939642,3.637635728,0.014251666,2.761119468,-2.529893198,2.332166669,-5.790796741
-5.376664004,3.20041749,4.088286494,-12.28151179,0.0862475,4.563129749,12.11037083,12.28843513,25.8878295,17.44949068,20.73579936,12.14423258,9.713955332,3.962914949,-0.22952773,3.102340623,-1.661060987,3.19162164,-5.77031823
-5.944941078,2.909961376,2.914752833,-8.469427279,-1.879825777,2.687563909,10.62009314,10.57895322,23.66998247,15.65458791,19.94062367,10.61962185,8.837525804,3.58196098,0.370351424,3.7038846,-1.944565388,3.345875674,-5.192272696
-6.627361839,2.781978421,2.137062,2.348269304,-1.764583897,2.37903099,10.67929114,11.22828698,23.6073595,13.43817422,18.97918094,8.968892785,9.640578522,3.621210035,2.543201934,4.479704207,-2.650195928,3.109995779,-3.51437913
-6.456936536,3.255422996,2.701444361,18.38873357,0.61781215,4.033118378,12.3678743,13.88371222,25.3131369,12.30039359,19.48857997,8.777260718,11.94659777,4.686448953,5.474058535,4.469767282,-2.729657733,2.879938303,-1.478133775
-5.520251152,3.731311268,3.900908887,31.70797081,3.841678068,6.498981878,14.38719656,16.41832315,26.49445713,12.67192222,21.64942966,10.11759507,14.29760306,6.29362391,7.023443958,2.410414733,-2.015529145,2.50089807,-0.703229529
-4.913075934,3.00819179,4.059354604,33.04980438,6.029079404,8.13383716,15.27908179,16.66105996,25.03469175,13.8142476,24.13945102,11.60102927,15.24330744,7.428217056,5.395513955,-2.012926164,-1.470370754,1.297550423,-2.269609576
-5.738913466,0.344117549,2.085151691,19.44787111,6.267648583,8.20344725,14.68084967,14.07573194,20.90681009,14.43010863,25.33912844,11.74494522,14.60958825,7.644836981,0.866875526,-7.386291828,-2.242469369,-1.214776578,-5.567510877
-8.05364744,-3.786038581,-1.499021597,-1.916819967,5.113137298,7.38347624,13.5119394,10.04892806,16.29824974,13.47466055,24.61450651,10.33165572,13.60783981,7.584629328,-4.041163228,-11.19413668,-4.464885487,-4.658823005,-8.556074194
-10.70275658,-7.915673401,-4.932500349,-17.65267984,3.864233189,6.987791296,13.02874019,6.703663249,13.89573673,10.71250265,22.60366353,8.537702191,13.70938217,8.346685844,-6.299953286,-11.59512172,-6.989840436,-7.894990013,-9.337355929
-12.20372511,-10.6212648,-6.63403517,-17.6271039,3.360204574,7.703193454,13.69833111,5.355292928,14.80887247,6.830964524,20.44467842,7.804166707,15.31578138,10.27019371,-4.695382503,-8.964249964,-8.355155803,-9.882246622,-7.728496168
-11.91560299,-11.50311591,-6.423440061,-2.766691916,3.377425415,9.001836353,14.91310631,5.857492014,17.81411223,3.12604764,18.80485769,8.545274189,17.4085626,12.30358699,-0.811857138,-5.826630598,-8.095996941,-10.52140945,-5.434022289
-10.50769677,-11.31374529,-5.539026642,15.22903677,3.060806092,9.720475418,15.70078509,7.157117322,20.40056578,0.876912045,17.59637304,9.85018192,18.4508546,12.65466874,2.189804961,-5.05359175,-7.164794341,-10.66520152,-4.60311674
-9.363516794,-11.17827593,-5.509179833,22.48782438,1.863995071,9.206267218,15.64650753,8.319849287,20.61651665,0.633974224,16.48069253,10.35268091,17.69218972,10.253478,2.039008989,-7.661951158,-7.035716181,-11.23937001,-5.977156135
-9.460492826,-11.60952666,-6.883719876,13.41961257,0.073437441,7.936622571,15.11861549,9.048665759,18.21418727,1.789697347,15.49115377,9.391403823,15.71100004,5.776656389,-0.935987689,-11.97652997,-8.291537769,-12.27130717,-8.226106909
-10.66497013,-12.14868992,-8.87086099,-5.11189215,-1.528708578,7.048741443,14.64888684,9.399833984,14.37786252,2.803854497,15.06983861,7.415832135,13.77015048,1.304599808,-4.222408298,-14.87053808,-9.989088628,-12.75522027,-9.06867499
-11.96947882,-11.88539558,-10.09711147,-19.20061487,-2.455684363,7.244110105,14.18641064,9.249685516,10.57163924,2.133541847,15.49045095,5.386795198,12.64628918,-1.158778146,-5.25920928,-14.12793668,-10.41315513,-11.54353721,-7.235309537
-12.38254153,-10.35728652,-9.773565933,-18.65222066,-2.947522716,8.106584328,13.06465023,8.238392009,7.630011367,-0.622867119,16.31276445,3.862372543,12.02635773,-1.100727112,-3.499194356,-10.06809052,-8.581234007,-8.504079222,-3.603782523
-11.68103344,-8.043554421,-8.292541385,-4.661505823,-3.625610242,8.476114639,10.7791988,6.296412123,5.730486689,-4.193470647,16.51272048,2.664121232,10.98049287,0.288789911,-0.729223576,-5.18953733,-5.181104296,-4.893357923,-0.545623233
-10.44185399,-6.054547168,-6.834949502,11.47438601,-4.73933084,7.537874056,7.802745651,4.128514635,4.932124864,-6.26576869,15.26481556,1.354770118,8.99939704,1.215117802,0.527191599,-2.199799231,-2.115173633,-2.549488565,-0.043560828
-9.435770129,-5.30618485,-6.395965126,17.34129549,-5.781070008,5.627521918,5.536648393,2.97259646,5.491391962,-5.018400597,12.68282862,-0.070063341,6.584430704,0.71193856,-0.866035962,-2.055195014,-1.037790723,-2.533449307,-2.156380618
-8.977649599,-5.862698933,-7.037147819,8.840086512,-5.887166974,4.013158809,5.281125488,3.662402364,7.564841721,-0.511494127,9.813708915,-1.047293854,4.841956496,-0.767275193,-3.74930528,-3.524227669,-2.12291873,-4.337828991,-5.065496085
-8.770223164,-6.941329091,-7.893055852,-7.262333466,-4.669148714,3.842700905,7.078484136,5.805684687,10.68147702,5.147538508,7.850206374,-1.018016424,4.492890728,-1.973998672,-5.637841999,-4.469034555,-4.05884034,-6.309280635,-6.577080244
-8.277903143,-7.515852034,-7.830170335,-19.27201907,-2.678077146,5.191471525,9.506805387,7.925535779,13.68359236,9.101754522,7.245749975,-0.08832919,5.248848307,-2.028590617,-4.695398275,-3.66186596,-5.18848702,-6.918613277,-5.773166934
-7.21705978,-7.020265013,-6.221517301,-19.85293814,-1.024803505,7.040469921,10.71011123,8.583578082,15.36579497,9.613380833,7.498739555,0.961819999,6.130419389,-1.071862443,-1.113501817,-1.646726763,-4.773075772,-5.842693256,-3.491235818
-5.733061498,-5.659905567,-3.337282651,-11.15395145,-0.466617787,8.173187273,9.833585852,7.550130302,15.27919231,7.112613861,7.745329136,1.404944515,6.388767103,0.073689533,3.100185948,-0.083754509,-3.353797441,-4.045561608,-1.396833854
-4.195933943,-4.199812364,-0.202506481,-2.003553952,-0.785337093,8.170450571,7.618064305,5.936621912,13.91657718,3.636579486,7.55782278,1.321255305,6.120413575,0.776455433,5.605807997,-0.300663345,-2.052011508,-2.915667811,-0.591894669
-2.895197364,-3.46922806,1.90957732,0.046648739,-1.031962842,7.629981357,5.615004331,5.083213154,12.05599492,1.132839024,7.191531357,1.564509487,5.981609278,1.118629687,5.257948872,-2.321599018,-1.557739372,-3.248232445,-0.959028544
-1.928699082,-3.923077759,2.083449257,-4.939582181,-0.420688334,7.464191063,4.707994869,5.153290152,9.888247202,0.005359685,7.093100737,2.85113584,6.305690862,1.614876064,2.598560114,-5.073243033,-1.710739904,-4.856320313,-1.644337397
-1.304246817,-5.449582421,0.247032274,-9.672324876,0.946689529,7.961137172,4.268825875,4.75322688,6.83306761,-0.939742571,7.22074675,4.78872264,6.537724117,2.496015264,-0.82069257,-7.388570619,-1.917802859,-6.94648088,-2.031237566
-1.033911285,-7.42229435,-2.649079489,-6.164449318,2.192644422,8.481460385,2.734105527,2.061053434,2.320836783,-3.171188603,6.914079625,5.84624739,5.623677618,3.342379417,-3.5593299,-8.822111837,-1.853556179,-8.750861224,-2.216850215
-1.054619136,-8.927912299,-4.927222285,7.142730554,2.505560935,8.060454879,-0.877387617,-3.409244057,-3.165876374,-6.910683969,5.500468984,4.485296111,3.068046694,3.475681944,-4.990986304,-9.626179934,-1.707283907,-9.83405432,-2.614258706
-1.077342459,-9.124048088,-4.975972945,23.47083067,1.922600998,6.355234896,-5.850231758,-9.953719942,-7.878799765,-10.74425726,3.065912271,0.584977481,-0.325338466,2.734870185,-5.26917475,-10.10536724,-1.784893504,-9.966621045,-3.2169728
-0.630450293,-7.655086749,-2.236145601,32.4372384,1.310100044,4.072384113,-10.08282808,-14.61055488,-9.842802739,-12.71643388,0.59813773,-4.094559534,-2.80450316,1.839075356,-4.864393823,-10.11919082,-1.970376629,-8.940384904,-3.382153181
0.597013013,-4.941349312,2.227121566,27.55755764,1.53857622,2.487923938,-11.60862876,-15.2564048,-8.40103849,-11.97593348,-0.72788955,-6.940690424,-2.923155286,1.897958376,-4.169142135,-9.256871985,-1.696845547,-6.697589086,-2.428262565
2.357657909,-2.095440563,6.103322788,10.69682496,2.609428652,2.479167566,-10.05470956,-12.20022228,-4.92067059,-9.558976955,-0.519973593,-6.289798871,-0.661140769,3.439174215,-3.392964251,-7.46194906,-0.535771441,-3.690476891,-0.471617162
3.811852756,-0.375175842,7.140342696,-9.633699854,3.563874164,3.898742378,-6.820345053,-7.950072162,-1.911641504,-7.625513134,0.507638626,-2.595019961,2.561131937,5.820446232,-2.622443846,-5.392729918,1.16988862,-0.992602404,1.387093977
4.032891218,-0.424728537,4.619856408,-24.32832454,3.30687118,5.789010809,-3.874610694,-5.30957926,-1.158432532,-7.777000598,1.200602475,1.953806127,5.001558578,7.597700936,-1.851907356,-4.048064778,2.33338472,0.187920141,1.84048137
2.733717984,-1.815859421,-0.041666615,-29.20529999,1.633186299,7.189518545,-2.252081263,-5.336598241,-2.384066326,-9.85453751,1.036691551,5.013727236,5.888641015,7.584721967,-0.978101166,-3.926155906,1.929738774,-0.640537361,0.49559299
0.607534432,-3.292704446,-4.114661648,-26.11062706,-0.478588435,7.810501235,-1.52782908,-6.794455409,-3.594036904,-12.18967292,0.596252505,5.591226451,5.791672158,5.722178624,0.105212619,-4.49758961,-0.073087008,-2.745984029,-1.683471207
-1.09048951,-3.639071717,-5.332170774,-19.61755284,-1.616073894,8.036986301,-0.622613833,-7.46168165,-2.844877248,-13.03774514,0.945419064,4.346390379,5.815471835,3.037974582,1.286513868,-4.550885576,-2.519579367,-4.563898496,-3.085870519
-1.474022837,-2.574199899,-3.382259063,-12.73487701,-1.113877026,8.372052081,0.9132926,-6.121005496,0.052449539,-11.94196724,2.475242134,2.659999919,6.422486953,0.777017999,2.098647559,-3.19086855,-3.878397309,-4.811584538,-2.764045118
-0.741575688,-0.984668356,-0.01798754,-5.285471641,0.354041366,8.912505881,2.375742321,-3.534354881,3.353189919,-9.891388581,4.32115725,1.433462823,6.99395724,-0.515221324,1.917484059,-0.647024909,-3.439370098,-3.471874639,-1.218687683
-0.059666448,-0.261739395,2.304638856,4.152789324,1.305246932,9.34698303,2.620109412,-1.639920455,4.878587821,-8.222905071,5.026958322,0.662504218,6.525129272,-1.184262719,0.469223966,1.835260541,-1.890391076,-1.807661391,0.038451653
-0.652476054,-1.210013717,2.231606085,15.05573869,0.677811002,9.412623785,1.302571318,-1.751259931,3.893087857,-7.314048552,3.967767668,-0.024509974,4.770508119,-1.859546469,-1.75161687,2.973701686,-0.762046636,-1.332698323,-0.224757962
-2.806771788,-3.364494761,0.396154839,23.75395287,-1.268994326,9.291544596,-0.574388289,-3.362538806,1.723838028,-6.265816929,2.239325504,-0.598076013,2.713638222,-2.700380842,-3.607856343,2.495765636,-1.186043074,-2.549722969,-1.938377169
-5.602209906,-5.269139491,-1.244201669,25.52405047,-3.131703153,9.504554148,-1.398356901,-4.586252908,0.581765211,-3.866505263,2.05060428,-0.499452141,1.848891344,-3.235927761,-4.038907799,1.377948347,-3.000420682,-4.499886137,-3.856907117
-7.598519276,-5.530252675,-1.031639701,18.28269339,-3.458374823,10.37930316,-0.348000302,-3.810228508,1.615447596,0.032505452,4.925987057,0.710387805,2.874494968,-2.932205786,-2.870474075,1.075529231,-4.935487712,-5.516906127,-4.691590012
-7.926206746,-3.84911541,1.111560594,4.746497363,-1.850560527,11.6206808,1.814802615,-1.122283332,3.901291773,3.990779118,10.15522314,2.63848229,4.980854695,-1.900258919,-1.030624377,2.372804994,-5.69359795,-4.581507311,-4.217049591
-6.898938975,-1.253537396,3.706890662,-8.847965444,0.806416858,12.44847288,3.324071657,1.709806308,5.254360951,5.84858375,14.88865235,4.113359283,6.421391391,-1.01064608,0.085440141,4.768544429,-4.996529531,-2.173685389,-3.365864461
-5.673611595,0.625152223,4.921749833,-16.5897728,3.102012879,12.23854816,2.891247206,2.650013457,4.151350866,4.336707349,16.00224632,4.086070488,5.908878419,-1.239907174,-0.354650153,6.837311928,-3.744037493,0.056685478,-3.258043476
-5.279864421,0.654704089,3.909812477,-16.43162521,4.15562617,11.10575906,0.78617924,0.975442694,1.086918916,0.118898056,12.37637941,2.575508495,3.626208575,-2.81640954,-2.027048156,7.21549812,-3.214224184,0.505532681,-4.086252919
-5.846926521,-1.140179346,1.240720244,-10.88832013,4.10210822,9.878695606,-1.449740747,-2.27406427,-1.817190277,-4.59089552,5.80399787,0.71770562,0.972751588,-4.955095715,-3.791466851,5.426795025,-4.03409653,-1.275183021,-4.90784291
-6.6504589,-3.786843711,-1.789504819,-4.635103112,3.704001764,9.447381164,-2.403695824,-5.255729258,-2.608187319,-7.537133047,-0.223933584,-0.223958672,-0.702463165,-6.454599941,-4.671624108,2.000235936,-5.777239352,-4.415051186,-4.560695539
-6.879199118,-6.170561611,-4.246720854,-1.043466554,3.550343941,10.0368765,-2.038880303,-6.77734963,-1.149544173,-7.873084228,-2.936865814,-0.022556061,-1.222965459,-6.64607699,-4.626769042,-2.038274478,-7.442579566,-7.530130929,-2.875226072
-6.412744354,-7.756538507,-6.091283041,-0.249512973,3.595062608,11.04471207,-1.647012225,-6.996351128,0.787223435,-6.475512627,-2.052360194,0.285547557,-1.550186132,-5.856133098,-4.449494577,-5.778704061,-8.307824285,-9.748575926,-1.048584824
-5.924879699,-8.716047132,-7.800794563,0.089774524,3.396766626,11.58851464,-2.53147249,-6.875546883,1.03706421,-5.006883743,0.39670122,-0.590452396,-2.652543351,-4.984841976,-4.908248814,-8.700914533,-8.400907984,-11.13241253,-0.768372143
-6.241001336,-9.492206713,-9.573805269,2.326720468,2.746488558,11.27925805,-4.618199964,-7.030342837,-1.155737113,-4.586378012,1.888193526,-2.819742796,-4.363836368,-4.606644596,-5.94098596,-10.59295892,-8.260357748,-12.27852366,-2.788545521
-7.535153348,-10.27643859,-10.93371463,6.742365942,2.033434215,10.53470216,-6.302498698,-7.08708358,-4.56742227,-5.129875129,1.331887831,-5.009073585,-5.348769056,-4.436272778,-6.669085181,-11.41012464,-8.317215259,-13.58783496,-6.178099801
-9.083436189,-10.84740146,-11.1082102,11.3620178,1.9805943,10.16095446,-5.762231399,-6.130407505,-7.079679263,-5.747583643,-0.413703647,-5.235020967,-4.283814042,-3.660762614,-6.250351514,-11.29291601,-8.515002702,-14.88263946,-8.917345073
-9.798051165,-10.83102294,-9.793307868,13.53934191,2.990585293,10.58773056,-2.640932474,-3.783744464,-7.432813622,-5.685913808,-1.660464172,-2.754409078,-1.215937937,-1.830484696,-4.792870074,-10.64479487,-8.474715602,-15.62899052,-9.379005203
-9.091666278,-10.06399813,-7.542061311,11.89104497,4.708343392,11.45403329,1.388759817,-0.883449482,-6.159284365,-4.940759613,-1.523446213,1.104723095,2.169534184,0.531979174,-3.4417668,-10.00784987,-7.955914947,-15.44003865,-7.49039934
-7.347922582,-8.711190476,-5.375495466,7.136021148,6.209999304,11.92641396,3.755240223,0.925157851,-4.994985416,-4.090675618,-0.637995629,3.754891194,3.716470583,2.209617115,-3.462564084,-9.676303028,-7.109530238,-14.34434598,-4.661166745
-5.619746498,-7.079772198,-3.950681942,1.439060551,6.667247268,11.47387528,2.937833144,0.380897113,-5.386225423,-3.645977365,-0.454414487,3.295779823,2.468790516,2.257131386,-5.067668254,-9.350899986,-6.283081079,-12.62773717,-2.608603459
-4.826083771,-5.375299384,-3.049204748,-2.998746929,5.928651996,10.40968773,-0.361844747,-2.39143795,-7.399244546,-3.592508496,-1.878858246,0.001329415,-0.576449795,0.813052195,-7.0376113,-8.246370733,-5.627530233,-10.52172634,-2.103142533
-5.111998781,-3.665817044,-1.872034233,-5.00339509,4.555053291,9.70768003,-3.791805093,-5.886103844,-9.857565649,-3.527817904,-4.531388397,-3.916753711,-3.299059353,-0.980369959,-7.566822139,-5.726077193,-4.963580407,-8.134858573,-2.640935653
-5.863227536,-2.06399884,0.104014864,-4.581434986,3.330343581,10.23126522,-5.179197049,-8.205656397,-11.40391807,-3.170059196,-7.23423432,-6.092223039,-4.179090557,-1.915769576,-5.719573976,-2.016654448,-4.083753136,-5.698519848,-3.190935356
-6.304882667,-0.88174928,2.474062721,-2.414652781,2.692695248,12.02083356,-4.10721231,-8.246391276,-11.45802261,-2.674628803,-9.179601537,-5.842974049,-3.454732331,-1.725793801,-2.311503897,1.644191757,-3.181839202,-3.7876322,-3.246060423
-6.154921735,-0.524201616,4.06294626,0.671054822,2.535477917,14.23097599,-1.993022598,-6.22566415,-10.31808266,-2.430863044,-10.62777898,-4.53483809,-2.749838708,-1.291083208,0.552888165,3.688908777,-2.912872837,-3.135591726,-3.22520339
-5.811664781,-1.163720835,3.799021474,3.886180771,2.454355947,15.7546078,-0.715822053,-3.307786009,-8.566979197,-2.569238233,-12.47263187,-4.218071193,-3.532342215,-1.867739666,0.980531899,3.294917426,-3.912216978,-4.072322087,-3.933659705
-5.977745675,-2.495139911,1.5890284,6.440838261,2.13874175,16.00788433,-1.039261062,-0.784029646,-6.566101386,-2.724885367,-15.10608459,-5.76592354,-5.764384927,-3.987795102,-1.324846779,1.012247575,-6.150768809,-6.077787765,-5.658258033
-7.072807043,-3.848421003,-1.524423164,7.646305511,1.555857593,15.25538653,-2.157417732,0.537311522,-4.569527499,-2.357200968,-17.69854217,-8.139180649,-7.913050396,-6.955511466,-4.862337635,-1.608343523,-8.740740999,-7.965143285,-7.768472179
-8.900324207,-4.624182709,-4.039552266,7.263014132,0.848744628,14.2795743,-2.646081361,0.443502734,-3.182240666,-1.350706924,-18.65775621,-9.376616844,-8.291114541,-9.346283163,-7.453665341,-3.148686026,-10.46701603,-8.693097972,-9.18748212
-10.7700026,-4.704814616,-4.950357592,5.7950364,0.159010329,13.74467588,-1.873743869,-0.859685689,-3.397396145,-0.284255494,-16.95272647,-8.385813371,-6.548426031,-10.07673019,-7.804032178,-3.341554214,-10.67679055,-8.194949641,-9.286355392
-11.90974833,-4.483063921,-4.249469491,4.328757109,-0.396629556,13.80080636,-0.58698446,-2.869356451,-5.840681182,-0.012643773,-13.16334216,-5.928953879,-4.02950668,-9.173205098,-6.337670009,-3.168173327,-9.795815524,-7.490021125,-8.384835055
-11.84139127,-4.472911463,-2.682147474,3.873540587,-0.607503402,14.18825787,-0.185446104,-4.785405511,-9.781819251,-0.853234736,-9.290750213,-3.947383747,-2.714858575,-7.666009337,-4.762163025,-3.970285433,-9.008292719,-7.890337459,-7.425440474
-10.52078502,-4.841306543,-1.079417495,4.6671637,-0.135253791,14.63395793,-1.391002517,-5.637643891,-12.99006842,-2.11128424,-7.399535851,-3.858962392,-3.67366592,-6.774622449,-4.791242656,-6.30771006,-9.33021588,-9.894533586,-7.143522281
-8.275089444,-5.279704405,0.13078349,6.053742685,1.269966121,15.1135953,-3.532767896,-4.737561933,-12.96887547,-2.463840517,-8.160999501,-5.359805298,-6.32448098,-7.077413366,-7.005450385,-9.474996588,-10.82266635,-12.6830227,-7.486917994
-5.677611974,-5.335315568,0.906813968,7.115447143,3.434892272,15.75196815,-5.083887298,-2.248153267,-8.858311326,-0.988852818,-10.46187629,-6.779970304,-9.046991631,-8.267123542,-10.59150403,-12.02057671,-12.576604,-14.6721603,-7.773478033
-3.426583092,-4.904123895,1.252311565,7.560437734,5.660834141,16.52408595,-4.953166309,0.658727928,-2.459552459,1.995178011,-12.35773625,-6.633509566,-10.51648563,-9.538048418,-13.9712092,-12.79113494,-13.4529602,-14.71041154,-7.388020485
-2.180285432,-4.428358853,0.995359248,8.047880741,7.078860335,17.11536452,-3.373869268,2.412661441,2.703377955,5.04341693,-12.55024538,-4.939754469,-10.57830209,-10.16305829,-15.73881347,-11.64954834,-12.94624289,-12.95269683,-6.354451742
-2.311040789,-4.591807529,-0.063216677,9.532520247,7.279648211,17.12459352,-1.614268302,2.151268665,3.835373591,6.657205178,-11.18402112,-3.122079973,-9.987447638,-9.797341219,-15.2788088,-9.369310007,-11.48130905,-10.70928775,-5.282672477
-3.676368166,-5.750654289,-1.806169033,12.08525167,6.710981711,16.43429727,-0.794055875,0.507633217,1.02297173,6.487487326,-9.389097654,-2.592871375,-9.398666048,-8.420019546,-12.83194167,-6.932883419,-9.97394774,-9.415439989,-4.796938545
-5.603364514,-7.581353515,-3.657008078,14.26395095,6.434581281,15.38609605,-0.875949655,-0.647478263,-2.686931194,5.660686178,-8.06995469,-3.331214841,-8.633154276,-6.175856615,-9.191528303,-4.90251133,-9.103796364,-9.578813576,-5.018884999
-7.191218787,-9.251715757,-4.846937947,13.85028306,7.331611362,14.566351,-0.72882614,0.522268885,-3.510571058,5.888325092,-7.0418108,-3.778535419,-6.919550235,-3.372994682,-5.326602793,-3.336723247,-8.923911138,-10.53354616,-5.579315286
-7.793832184,-9.980161668,-4.898770437,9.693191422,9.339679317,14.36949644,0.797721746,4.408428408,0.176758896,8.021487519,-5.260240576,-2.202740121,-3.85203706,-0.592894629,-2.079266482,-2.140682786,-9.051952107,-11.11402218,-6.090203283
-7.362297772,-9.528353402,-3.915360982,3.305851616,11.35050599,14.71859993,3.733923646,9.494077902,6.525748247,11.21422448,-1.923820741,1.638982881,-0.120482298,1.359697227,0.065455275,-1.34913803,-9.143545636,-10.60123405,-6.558422292
-6.395339286,-8.249001191,-2.432930555,-1.288982362,11.91428745,15.18468513,6.781730605,13.25921514,11.54283993,13.42288121,2.514644181,6.006044069,2.733356826,1.821177045,1.119459081,-1.006875658,-9.148381089,-9.143162675,-7.298786724
-5.537544085,-6.703831812,-0.993112714,0.143325796,10.25900949,15.38822728,8.228787994,13.83746248,12.04830297,12.91513939,6.311759887,8.334291318,3.393992331,0.742724912,1.529949874,-0.831165681,-9.146745876,-7.394977035,-8.426440421
-5.140141407,-5.221078244,0.177565662,8.903015506,6.866257411,15.32079554,7.230039707,11.2208585,7.964295786,9.635154402,7.459241187,7.137892812,1.78650568,-1.151304862,1.848889318,-0.156975989,-9.030671554,-5.833393277,-9.464848608
-5.114911032,-3.77015351,1.132819709,21.6233053,3.177035656,15.31346683,4.421168716,7.156165683,2.200259502,5.34594954,5.026912726,3.133473979,-0.827273709,-2.753632417,2.292117409,1.580014831,-8.454523796,-4.426246549,-9.540115595
-5.149917634,-2.206943365,1.933580211,31.55254831,0.663822003,15.70858762,1.412120841,3.874304492,-1.658446685,2.404332914,-0.138189487,-1.263478333,-2.739671693,-3.278150615,2.539240641,4.165913254,-7.176968459,-2.913474694,-8.084222108
-5.047102049,-0.597236791,2.477571357,32.43077472,-0.037602227,16.55120625,-0.377718278,2.642329822,-1.942739209,2.084630396,-5.811997756,-3.593930605,-2.932026302,-2.730470875,2.020566687,6.429746932,-5.46059054,-1.321426465,-5.446304099
-4.861108548,0.725231739,2.634249332,22.54951521,0.657194253,17.57247393,-0.610720003,3.170933535,0.241233864,3.720277394,-9.576888572,-2.845711521,-1.574790099,-1.761156513,0.535472282,6.940024914,-4.061027957,-0.109171296,-2.818458015
-4.733179593,1.432145257,2.531809345,6.166696773,1.773667868,18.44835889,-0.030731991,4.171134082,2.370629403,5.303120607,-10.02223719,0.243547635,0.376715764,-1.041450078,-1.31768684,5.173985108,-3.692703723,0.257984583,-1.448499661
-4.619296328,1.536909907,2.636991263,-8.905210344,2.513251834,19.06731357,0.285320866,4.473772972,2.740827095,5.0657629,-7.313605462,4.031113927,1.997036102,-0.716290945,-2.363454849,2.206023554,-4.385331973,-0.106966883,-1.744918505
-4.219588169,1.452149902,3.441560189,-16.06610839,2.673207907,19.56203135,-0.260315639,3.803272246,1.641292307,2.836751143,-2.957711381,7.07196624,2.883196635,-0.406245244,-1.669449849,0.205863964,-5.329473537,-0.407365155,-3.006948861
-3.221575143,1.682761394,4.974832318,-13.83695909,2.540481917,20.11387107,-1.512341672,2.71549533,0.604482962,0.154536655,0.975578715,8.635200353,3.028975283,0.286483653,0.6557301,0.965523112,-5.432077177,0.246479846,-4.003890608
-1.652384754,2.412664918,6.602910266,-6.226885655,2.490624421,20.76124137,-2.891381991,1.936360377,0.597484249,-0.920337436,2.756175987,8.537007389,2.418954232,1.286746979,3.395235303,4.53420676,-4.172640146,2.019868412,-3.918802562
0.004423228,3.351781665,7.385093312,0.613799359,2.686015093,21.41295923,-3.916003555,1.747985293,0.911054405,0.614527969,1.676793872,6.839680214,0.893299551,2.070846175,5.050242854,9.065065901,-2.039962844,4.072256578,-2.880769603
1.089647522,3.980503905,6.771696461,2.94704276,3.070829823,22.02330842,-4.473696575,1.885470516,-0.201131104,3.903900573,-1.695100814,3.904285733,-1.54392507,2.203721369,4.961624657,12.07365557,-0.149374718,5.15714324,-1.686513006
1.256913265,3.974522962,5.081504241,1.857182243,3.546003871,22.68834779,-4.733415603,1.887920903,-3.707607128,6.784027693,-5.789156725,0.671021419,-4.349082991,1.866829212,3.816477944,12.1829759,0.663560034,4.662357932,-1.016631348
0.771766035,3.440503279,3.330813262,1.824192568,4.08185498,23.49291754,-4.919860969,1.491775944,-8.485784134,7.259371954,-8.763293912,-1.404639033,-6.513094781,1.823602634,3.08670979,10.01930194,0.513958152,3.205696351,-0.862603659
0.356440378,2.778827947,2.514301035,6.684129293,4.669489961,24.22309697,-5.195045932,0.73617682,-11.79689333,4.848970243,-9.40231075,-1.078262675,-7.173904518,2.782242652,3.828499806,7.59000513,0.334480177,2.230902233,-0.6487298
0.681686119,2.333149918,2.906251312,16.16056403,5.231395715,24.27071623,-5.670552808,-0.194591045,-11.29405664,0.89000729,-7.71831446,1.716761872,-6.276734167,4.707016034,5.827009517,6.682047405,1.057084586,2.893726574,0.114441661
1.894149275,2.163176214,3.937981987,25.65750899,5.658558875,22.9475477,-6.398755819,-1.126687762,-6.951182497,-2.346502503,-4.870746874,5.542144719,-4.655002859,6.732831741,7.797023676,7.571653985,2.812277797,5.14919109,1.282971742
3.531553507,2.125884005,4.713969647,29.45648096,5.970281314,20.05107407,-7.262351556,-1.878380446,-1.297207599,-3.070047706,-2.417725116,8.263330896,-3.390108629,7.821312114,8.45652111,9.019778348,4.816698153,7.790905378,2.158894675
4.857343412,2.126612501,4.68880858,24.84543222,6.401290503,16.21816663,-7.894193154,-2.173159818,2.302235065,-0.973380904,-1.379708532,8.511736603,-2.982650123,7.610384125,7.543393761,9.434906314,6.009344915,9.382441713,2.127716465
5.322726331,2.228700354,3.920990238,14.04512093,7.239636959,12.68616432,-7.831589423,-1.718041306,1.996486843,2.745565245,-1.760201003,6.634290951,-3.080639531,6.691787205,5.905632694,8.151348522,5.856838171,9.272360677,1.266220901
4.806451996,2.467391322,2.738276477,2.559191565,8.483859234,10.53903954,-6.902903437,-0.499492561,-1.376332994,6.213532821,-2.836365408,4.282362263,-3.019402625,6.036089601,4.621178436,5.77148681,4.643170782,7.856912436,0.350354414
3.514357784,2.553872474,1.205479225,-4.67079938,9.62498885,9.97812513,-5.54200981,0.956590636,-5.135766085,7.921531351,-3.926545116,2.930523142,-2.659549468,6.061373557,3.969915349,3.407143263,3.06164451,5.958766771,0.226928533
1.713503799,1.835695297,-1.036989714,-6.343657079,9.827218597,10.20350754,-4.666296086,1.699583835,-6.870818627,7.320631618,-4.956334237,2.59200711,-2.687220735,6.202604615,3.210979825,1.621426819,1.560073183,3.980472444,1.082029859
-0.430507702,-0.310422498,-4.365565211,-4.922837724,8.460692343,10.03876322,-5.076058132,0.900063904,-6.141508622,4.73922957,-6.330335572,1.893639794,-4.007952879,5.423693079,1.384260338,0.071689171,0.074015529,1.651465188,2.238504957
-2.806093426,-3.896865291,-8.575586649,-4.034466259,5.600138737,8.831405081,-6.791877025,-1.537563743,-4.538105901,0.880790999,-8.244681552,-0.499266709,-6.73222146,3.261979241,-1.594688858,-1.858026849,-1.635390893,-1.417239964,2.66320312
-5.224958285,-8.058633486,-12.70928536,-5.441491718,2.067614245,6.920309997,-8.904629952,-4.812018473,-4.224112606,-3.623404101,-10.11070196,-4.35868141,-9.717814573,0.465832352,-4.581483786,-4.100977963,-3.432276037,-4.956085682,1.764547162
-7.405951565,-11.42629889,-15.57731959,-8.009721629,-1.062883726,5.300865476,-10.15693352,-7.715123106,-6.219410826,-8.299826512,-10.71227958,-7.700731469,-11.22199914,-1.414739286,-5.987987274,-5.615280124,-4.655253812,-7.865459543,-0.167814407
-9.121113026,-12.94734361,-16.59996009,-9.258597617,-3.138139901,4.769891094,-9.859778223,-9.434415218,-9.72532236,-12.61806955,-9.089562666,-8.240571062,-10.23651851,-1.221230101,-5.07101891,-5.134167602,-4.586770689,-8.92238092,-2.20720296
-10.3476362,-12.54722744,-16.24432514,-7.915692963,-4.254945129,5.254314557,-8.410132906,-10.03209061,-12.84386488,-15.80169434,-5.456385395,-5.335017396,-7.394927935,0.824073796,-2.591763183,-2.348484949,-3.136566869,-7.788480335,-3.471674126
-11.23414919,-11.09162115,-15.62438542,-5.165240155,-5.002411733,5.866419692,-6.954640119,-10.20792257,-13.96464906,-16.95654553,-1.331776655,-0.723240864,-4.607828612,3.206720504,-0.221460349,1.557972676,-1.069069839,-5.391875843,-3.672348344
-11.87393097,-9.655246523,-15.54139196,-3.530626238,-5.860578247,5.622302841,-6.447769868,-10.55622572,-12.73713177,-15.52265975,1.344959794,2.677664801,-3.628270285,4.270838069,0.835036188,4.598803168,0.51975036,-3.259864857,-3.132705844
-12.10248266,-8.682399026,-15.75966269,-4.437831511,-6.775221123,4.220651307,-6.885135611,-10.96970378,-10.06531016,-11.75051392,1.505636012,3.008135441,-4.692747488,3.502739989,0.806387018,5.422678919,1.077359638,-2.313164471,-2.364774599
-11.56309159,-7.736938315,-15.16312526,-6.674295235,-7.25567957,2.252746363,-7.370952967,-10.72517414,-7.384429091,-6.817054456,-0.34060216,0.881523264,-6.38204373,1.878687645,1.037654824,4.329725752,1.051145633,-2.155837273,-1.635966964
-10.05198774,-6.059023935,-12.71735901,-7.214707319,-6.874776378,0.705719591,-6.975766384,-9.191822328,-5.893490282,-2.404911952,-2.553676194,-1.236864562,-6.855310645,0.983226192,2.624297856,2.996864561,1.475857256,-1.509423586,-0.89106091
-7.861863232,-3.455285986,-8.469945052,-3.866281321,-5.702021536,0.199615008,-5.650175397,-6.543823557,-6.193516307,0.071477019,-3.62702769,-1.196436679,-5.451470164,1.641271406,5.180438598,3.100004857,2.998826538,0.546849723,-0.016067168
-5.773759328,-0.733902877,-3.752626221,2.425243843,-4.277694379,0.580386261,-4.389742274,-3.831427549,-8.285532956,0.148376652,-3.293728063,0.945436841,-3.31864538,3.217564734,6.867364713,4.943670015,5.176762909,3.594986482,0.884201464
-4.605829964,0.753782952,-0.376252861,7.633435633,-3.159524454,1.149926831,-4.476573374,-2.305412331,-11.64277468,-1.515420415,-2.641958875,2.917986972,-2.528621721,4.167774763,5.761856245,7.208943257,6.687161765,6.034036467,1.495259131
-4.617047556,0.155882575,0.581078983,7.300477985,-2.459410159,1.272495766,-6.420311516,-2.535728645,-15.25562634,-3.592707571,-3.207297908,2.148130194,-4.396003312,3.364905646,1.487250021,8.006371777,6.329267298,6.288945039,1.576170797
-5.243650076,-2.089515584,-0.531564147,-0.045934436,-1.788785365,0.824114933,-9.492870814,-4.052998724,-17.84314629,-4.89518201,-5.795825516,-2.005487852,-8.382252928,1.079244242,-4.24485731,6.354466277,4.002901383,4.078325622,1.223215546
-5.431096789,-4.404397202,-2.266619253,-11.24337554,-0.653038313,0.153304698,-12.25351798,-5.802769875,-18.41084004,-5.041061826,-9.932171729,-7.565083002,-12.46716192,-1.199327436,-8.678406148,2.889278999,0.849627832,0.679357995,0.837747577
-4.364343813,-5.124124928,-3.13427066,-19.97390532,1.07373534,-0.320393742,-13.62016533,-7.013884498,-16.94960917,-4.580173146,-14.25213993,-11.36295776,-14.6472598,-1.925055202,-9.862595005,-0.712417739,-1.568758063,-2.035242997,0.808732646
-2.067764533,-3.692234482,-2.565438702,-20.54691029,3.029311738,-0.452026096,-13.58740609,-7.738763704,-14.70795209,-4.51590555,-17.39843115,-11.39914016,-14.31538086,-0.668200424,-7.895336292,-3.045082619,-2.38618218,-2.993981402,1.194041625
0.574189906,-1.099984065,-1.110405588,-11.54394521,4.701107468,-0.358680877,-13.0148493,-8.619509085,-13.59125116,-5.540195615,-18.67392076,-8.21418101,-12.44057462,1.640245102,-4.667847123,-3.918543088,-1.955020284,-2.632790027,1.685530061
2.387274137,0.758646566,0.147613907,3.057789433,5.896273861,-0.126957165,-12.72310986,-10.10995749,-14.88672758,-7.473516421,-18.06121702,-4.253679344,-10.52581298,3.509225164,-2.425454531,-4.230475081,-1.414000427,-2.406891405,1.877316857
2.637027456,0.329253699,0.399090743,16.03736855,6.892513689,0.409660091,-12.72488864,-11.85560915,-18.17790433,-9.271197101,-15.84299875,-1.897194849,-9.338760325,3.9903149,-2.33647919,-5.019065142,-1.738152938,-3.610862618,1.581085687
1.391619457,-2.670981849,-0.491580207,21.04718374,8.110885751,1.560878299,-12.27253262,-12.79847907,-21.36466591,-9.605548253,-12.35958028,-1.857609685,-8.519718283,3.165576174,-4.111562072,-6.60881084,-3.087864165,-6.523625972,0.904815361
-0.690857749,-7.250321246,-2.175609439,16.20708157,9.600733445,3.423022905,-10.65947355,-11.95406939,-21.96881835,-7.677550912,-8.164299034,-3.183197447,-7.315230417,1.721623339,-6.740771485,-8.574893717,-4.935278567,-10.50279052,0.049713618
-2.905527668,-11.94969679,-4.26942362,5.056049084,10.82254709,5.6295568,-8.032926391,-9.233393106,-18.89192734,-3.766348541,-4.292079738,-4.60402584,-5.650008447,0.133903859,-9.497305009,-10.43041664,-6.726203447,-14.75346199,-0.948109886
-4.910953144,-15.75719753,-6.592695343,-5.656027534,10.97203155,7.489469519,-5.45829809,-5.633699789,-13.32632552,0.826176424,-2.111290919,-5.810943343,-4.455059595,-1.720634021,-12.26885417,-12.25560005,-8.389231664,-18.9231959,-2.257276504
-6.717410302,-18.44148831,-9.021156736,-10.00202492,9.615201743,8.444259289,-4.132795587,-2.625005386,-8.050642338,4.42502045,-2.570956374,-7.442911126,-4.867250375,-4.170782832,-15.02714971,-14.56529024,-10.21211245,-22.93466522,-4.016016758
-8.353942824,-20.16904087,-11.19437921,-6.348408831,7.115747399,8.471769002,-4.396916759,-1.18843262,-5.526185703,5.8650701,-5.303201204,-9.865133813,-6.97780275,-7.000048203,-17.10693696,-17.47594543,-12.24715775,-26.29079266,-6.040403231
-9.577825968,-20.87471489,-12.45613312,1.807352243,4.487408171,8.09221324,-5.382897186,-1.210908608,-6.148718508,5.104148671,-8.38195944,-12.02663738,-9.288441083,-9.127407585,-17.15168253,-19.9803151,-13.87795031,-27.68310531,-7.766078629
-9.916597687,-20.01704921,-12.16246135,8.174784653,2.766762081,7.967316955,-5.610923751,-1.641629026,-7.951844867,3.211976485,-9.18497245,-11.68114044,-9.496791436,-9.141754882,-13.94555025,-20.16329044,-14.04649526,-25.52049853,-8.516856689
-9.013198938,-16.96779998,-10.12387132,7.809342267,2.38069785,8.425494074,-4.062250639,-1.246123622,-8.015778215,1.738055209,-5.970173275,-7.03007109,-6.123226125,-6.340508951,-7.487000104,-16.42557926,-12.02943187,-19.13737143,-7.909670136
-6.970549187,-11.70903508,-6.805017596,0.482262213,2.965395708,9.290645463,-0.891340617,0.591356945,-4.5882603,1.820594203,0.871021976,1.505813409,0.251905613,-1.434920169,0.640504541,-8.863047342,-8.123390474,-9.711535407,-6.08980025
-4.393493891,-5.227315234,-3.109419059,-8.95501548,3.715597089,10.1101327,2.725770375,3.515694499,1.58900261,3.548944503,8.8134604,10.94207401,7.121894982,3.69066643,8.004152954,0.317694029,-3.633776165,-0.013390271,-3.636741786
-2.082183495,0.776158161,0.076044026,-13.62797696,3.940551908,10.53384229,5.396420152,6.428860835,7.666332276,5.942547244,14.54212504,17.27822313,11.50248673,7.035682486,12.65738839,7.811177283,-0.130166,7.004427697,-1.244577232
-0.607655821,4.704904496,2.232302343,-9.262031812,3.406530586,10.50081389,6.291330585,8.06872434,10.47925457,7.547262836,15.78318785,17.87628481,11.66207042,7.596492658,14.08088711,11.04131877,1.466883368,9.81878099,0.575437163
-0.068340652,5.859282564,3.252439196,2.699515111,2.296024235,10.11274791,5.364506954,7.595158411,8.499963668,7.292176235,12.43270312,12.9402163,7.947167861,5.769865946,13.07940946,9.563163823,1.288031899,8.994003979,1.604370702
-0.154065108,4.681268602,3.268640853,15.72960274,0.951166231,9.388405678,3.037631676,4.950756311,2.684148405,5.111321237,6.321857781,5.097636306,2.25933631,2.864821887,10.84853949,5.110015726,0.177131072,6.466803284,1.868345669
-0.403604787,2.347637022,2.507031363,22.35566443,-0.31088199,8.195722911,-0.191942036,0.919135513,-4.209403342,1.992181141,-0.07425756,-2.433428798,-3.265727685,0.200217641,8.060402098,0.3545174,-1.015549987,4.095476156,1.573610157
-0.437664733,0.056009474,1.303766233,19.04619534,-1.191977498,6.455653479,-3.829118757,-3.120162198,-9.231011975,-0.542786638,-5.008020851,-7.627265978,-7.362951916,-1.528857191,4.702093616,-2.665585442,-1.907219114,2.61188737,1.091569304
-0.0398929,-1.505800738,0.175635895,8.429673599,-1.350651683,4.406435219,-7.203425234,-5.706614573,-10.70973925,-1.203782131,-8.030806102,-10.18959298,-9.867148468,-2.281607086,0.675383244,-3.402042152,-2.525044192,1.671046526,0.916476476
0.873911242,-2.239955306,-0.268022154,-2.743382561,-0.485801758,2.61505944,-9.440633924,-5.953170612,-8.797860989,0.464280187,-9.598281794,-10.8366334,-11.18913899,-2.301226956,-3.515506981,-2.553968123,-2.936358279,0.723704797,1.484694349
2.278757944,-2.371527023,0.363183059,-8.393954685,1.41441847,1.640122785,-9.863047934,-4.055569199,-5.024392371,3.914649975,-10.2700662,-10.29271828,-11.69201023,-1.798467806,-6.715563119,-1.199437519,-3.031999769,-0.212620009,2.885447145
4.000465761,-2.153277452,1.903688915,-7.110356409,3.878726403,1.595500099,-8.606023906,-1.316329934,-1.362436447,7.875808098,-10.25038022,-8.969795853,-11.51865835,-0.950436865,-7.844005004,-0.105337826,-2.699688997,-0.605883813,4.673315775
5.67548805,-1.785553778,3.576624524,-2.417639525,6.067294755,2.009567276,-6.868497327,0.460194492,0.596739184,10.88099463,-9.582955778,-7.405030863,-10.87637949,-0.086569353,-6.817417273,0.348098446,-2.17218236,-0.176675891,6.005095119
6.811528203,-1.538615095,4.34986309,0.699319519,7.208718782,2.160570429,-6.378215317,-0.05267211,0.070034254,11.80903443,-8.675958019,-6.689476667,-10.32880008,0.261640982,-4.878406669,-0.15335106,-2.11227967,0.422932015,6.103010472
6.967080513,-1.865700655,3.505806364,0.087026384,7.067281704,1.66209122,-8.276706579,-2.923499497,-2.843839482,10.26319583,-8.530508932,-8.135777434,-10.6683749,-0.39183539,-3.982166374,-2.025331591,-3.227104312,-0.236038454,4.759099737
5.949635963,-3.311206301,1.03709813,-2.023468512,6.068951995,0.828430663,-12.19246455,-6.901835101,-7.281008829,6.70329152,-10.30871685,-12.26778052,-12.37624722,-2.113447897,-5.61954106,-5.504881243,-5.673225794,-3.375597407,2.50459107
3.898968394,-6.213829084,-2.39784382,-1.473220684,4.963402607,0.496638269,-16.252065,-10.1432736,-11.85158282,2.299618478,-14.46687876,-18.03658805,-15.10335503,-4.387003974,-9.878328159,-10.17754893,-8.773438021,-8.971410567,0.288261576
1.208205215,-10.40288117,-5.891732066,3.472911185,4.278138802,1.412677259,-18.13066851,-11.24452535,-15.03213674,-1.477017478,-20.11006594,-23.14253225,-17.6495234,-6.343812987,-15.3603612,-14.85870794,-11.3526556,-15.54055472,-1.118901697
-1.64165339,-15.12480302,-8.747798412,9.704536706,3.998875109,3.646706469,-16.46064811,-9.904010971,-15.68804653,-3.424138499,-25.14832943,-25.4285417,-18.55064371,-7.241597643,-19.96654248,-18.11589366,-12.48536743,-20.98735971,-1.557964773
-4.213454117,-19.29136815,-10.6732896,11.13367864,3.721678731,6.486419817,-11.6310126,-6.825467864,-13.54075065,-3.108806305,-27.2983357,-24.31501653,-16.92135611,-6.84907049,-22.01060377,-19.13169938,-12.08352881,-23.88251268,-1.449719056
-6.158271344,-21.92657752,-11.66011184,3.661380858,3.121969785,8.882146946,-5.456402796,-3.057275328,-9.31250808,-1.027183099,-25.3637615,-21.09765753,-13.00605395,-5.485881247,-20.99196449,-18.23237852,-10.86810446,-24.21190961,-1.36369528
-7.219092731,-22.56087234,-11.75998189,-10.70465224,2.318548111,10.09574871,-0.015792586,0.656328204,-4.406951065,1.720489561,-19.9793743,-17.82143151,-8.089072608,-3.745682018,-17.65907601,-16.61108213,-9.766445165,-23.07932705,-1.560983528
-7.267859329,-21.36011768,-10.99189077,-24.15062653,1.80967839,10.07739818,3.488300539,4.044704061,-0.256224293,4.09527478,-13.30029671,-15.63419373,-3.830647249,-2.141335609,-13.44914101,-15.41356371,-9.233659543,-21.68693686,-1.867477631
-6.379450775,-18.94502541,-9.431757295,-27.99511483,2.03637432,9.342650365,5.118600857,7.012234441,2.317624459,5.721512399,-7.775894646,-13.97712042,-1.430816891,-0.90024878,-9.695908063,-14.89243567,-9.02719848,-20.44989314,-1.92712403
-4.859954715,-16.03832475,-7.331854006,-18.78143084,2.955898202,8.51786754,5.742122386,9.29598733,3.384349229,7.011797835,-4.745609633,-11.27346521,-1.087036828,0.031903882,-7.034107155,-14.30681413,-8.56334792,-18.9156443,-1.565068103
-3.148812587,-13.16033574,-5.097205941,-0.967063545,4.003134024,7.936855608,6.226904205,10.48854817,3.70738869,8.706030623,-3.742163916,-6.515989723,-2.013791476,0.864504925,-5.263786436,-12.65429374,-7.510359296,-16.45615886,-0.933692791
-1.620416557,-10.53682407,-3.110436924,15.8706162,4.487867905,7.558675607,6.923996143,10.42418064,4.215738801,11.14575399,-2.970385884,-0.403422641,-2.981609072,1.807828734,-3.696280902,-9.651040042,-6.121424938,-13.0867664,-0.348831801
-0.422165569,-8.230268691,-1.56484365,23.28939614,4.109464538,7.174672358,7.688394676,9.516917824,5.446849695,13.8329315,-0.685148115,4.928929997,-3.070279299,2.922396737,-1.774742356,-6.172476254,-5.074819136,-9.721583207,-0.015273717
0.516779636,-6.355420309,-0.46191683,19.16044881,3.177639938,6.657533512,8.215213814,8.628948,7.232074844,15.64040265,3.418652867,7.353625812,-2.222910956,3.99047882,0.391015847,-3.792873353,-5.004404198,-7.680698167,0.082202489
1.307454011,-5.187532816,0.240306795,8.223140343,2.376112146,6.038761255,8.296890092,8.467617032,8.751660131,15.55522966,7.756231788,6.184396429,-1.278538578,4.495072633,1.932924028,-3.764654129,-6.110410453,-7.859454664,0.041771376
1.910232009,-5.053360642,0.499294241,-1.929474431,2.272356797,5.407177119,7.821513631,8.983539566,8.926827207,13.41226774,9.725144101,2.482627724,-1.432614251,3.822559807,1.712315895,-6.193592945,-8.100963688,-10.17899543,-0.154296127
2.114533643,-6.062144873,0.229091143,-6.079962314,2.954425774,4.785036197,6.655957573,9.32141899,6.992920088,10.05872163,7.404180896,-1.889442714,-3.41855313,1.680989746,-0.856210868,-9.984474208,-10.40799061,-13.65340997,-0.649256417
1.730135233,-7.874730585,-0.5270098,-3.995104254,4.03830322,4.118540223,4.658668632,8.4493105,3.013087976,6.815486617,0.972772216,-5.573457756,-6.924402974,-1.505305242,-5.193119582,-13.53351025,-12.44171469,-16.93114991,-1.484028249
0.834663634,-9.71730948,-1.488683091,0.950693736,4.982170894,3.368804043,1.874566601,6.00896378,-1.936260601,4.642243601,-7.148750433,-8.297652164,-10.671815,-4.581918103,-9.663524223,-15.62290779,-13.72406463,-18.896381,-2.359363979
-0.152552556,-10.69823532,-2.250275844,5.29511552,5.435294421,2.580263481,-1.289677791,2.701774182,-6.091739275,3.637110719,-13.62312429,-10.40992744,-13.17506049,-6.202895675,-12.46571511,-15.91688654,-13.93769468,-19.00628019,-2.683227955
-0.674124671,-10.27123224,-2.549076045,7.980978708,5.388294744,1.845868624,-4.144404024,-0.125102127,-7.790463621,3.222711948,-16.1648589,-11.99951991,-13.70329978,-5.670175068,-12.7638528,-14.847188,-13.01055693,-17.322561,-1.963886076
-0.390556902,-8.558114103,-2.446930007,10.0561741,5.096339353,1.222656472,-6.049487613,-1.377337881,-6.364880903,2.813543443,-14.84442179,-12.55089705,-12.75871119,-3.492876305,-11.2565601,-13.14122391,-11.2427452,-14.38373622,-0.268761895
0.574694867,-6.305875078,-2.234237024,12.47722394,4.908978252,0.719545706,-6.73449638,-0.881898667,-2.618870177,2.381275198,-11.83302783,-11.47706872,-11.67538314,-1.179374328,-9.701340101,-11.41205391,-9.320290975,-11.03471971,1.658340615
1.68963203,-4.480634687,-2.124131611,14.45521118,5.132342407,0.396305321,-6.323656163,0.689291953,1.494355584,2.445535737,-9.76537671,-8.968382208,-11.58448585,-0.302309326,-9.666564806,-10.02649467,-8.065307848,-8.202283512,2.795852405
2.328202899,-3.741277299,-2.027286089,13.99368252,5.932100343,0.461780906,-5.054343194,2.51943726,3.914993679,3.520103574,-9.878318279,-6.231248821,-12.51005972,-1.455850722,-11.39782048,-9.150842985,-7.988422697,-6.577642995,2.512666556
2.113986378,-4.115752346,-1.6499899,10.0493376,7.222239889,1.212041653,-2.983393971,4.32372106,3.662139298,5.512845404,-11.24902582,-4.7287117,-13.31862748,-3.869339005,-13.64974098,-8.756543175,-8.943839619,-6.293637965,1.008794372
1.062128218,-5.06202642,-0.853157498,4.177633184,8.557581702,2.785083337,-0.006236803,6.397847833,1.410158837,7.61788942,-11.6585084,-4.988030254,-12.61639094,-5.982404124,-14.62399332,-8.529031989,-10.18690991,-6.813721996,-0.82068014
-0.53232779,-5.836168221,0.076387916,-0.024938205,9.165541695,4.917362514,3.788586724,9.012515401,-0.956578636,8.820615255,-9.413605048,-6.029925892,-9.928667236,-6.555167529,-13.30139261,-7.851376151,-10.84641943,-7.194615002,-2.006359202
-2.315632518,-5.901998619,0.564865451,0.60357159,8.244407764,6.957427055,7.77313099,11.74305332,-1.553970874,8.617641192,-4.754893518,-6.020212,-6.22033396,-5.470809315,-10.1448923,-6.05458363,-10.4774149,-6.629788893,-2.142886773
-4.013320423,-5.130543083,0.262702279,6.371379407,5.461081757,8.216284657,10.85588479,13.42823021,0.31955689,7.372961488,0.207416732,-3.710084273,-3.288920249,-3.640881041,-6.650490215,-2.880594074,-9.271354855,-4.930661994,-1.576177575
-5.413841491,-3.724030624,-0.499426736,14.29171721,1.344169489,8.435427708,12.05925966,12.9306474,3.817622758,6.033702726,2.982504241,0.486019462,-2.448176065,-2.150894553,-4.144782111,1.177820841,-7.775109173,-2.598776916,-1.037555622
-6.289689088,-1.999264119,-0.777900887,19.89633458,-2.774614591,7.996821063,11.20769412,10.1492923,7.215896586,5.450844254,2.499625793,4.681776771,-3.518135485,-1.386137175,-2.822417041,5.008647833,-6.385690182,-0.429792339,-1.049368653
-6.397796568,-0.224056867,0.327904689,19.85550049,-5.360724576,7.656652497,9.154201592,6.430453277,9.105446232,5.851607422,-0.119182672,6.862004275,-4.94171188,-0.854436011,-1.793827818,7.498580985,-5.075717638,1.049942829,-1.568447268
-5.600100828,1.406573307,2.900776514,13.59158338,-5.507642635,7.96080058,7.28254593,3.924586466,9.248820337,6.851868081,-2.378037464,6.316475129,-4.978904381,0.199147727,-0.057629439,8.228979997,-3.586182472,1.884235316,-2.099239724
-4.000907164,2.723824376,5.973089369,3.175269783,-3.459163836,8.788740235,6.597672062,4.249954749,8.531653698,7.934136374,-2.197405077,4.04126702,-3.06656566,1.974237392,2.463191421,7.711650792,-1.883709409,2.515701264,-2.120096306
-1.955187437,3.594453263,8.125268339,-7.827769594,-0.444869865,9.412196794,7.080235943,7.402601024,8.143333872,8.949220132,0.6460108,1.851891861,-0.273754571,3.840988685,4.728197916,6.951147248,-0.416391846,3.322846572,-1.452281464
0.094549015,4.023912717,8.529507281,-15.49816113,2.084847728,9.063882328,7.806862635,11.72140389,8.678592629,10.22165773,4.460585342,1.007106309,1.523395653,4.861125426,5.415662875,6.663982302,0.132235569,4.276642628,-0.312043039
1.842108928,4.25180875,7.631993506,-16.35543495,3.310791262,7.593826041,7.744429392,14.95964635,9.839382829,12.19879867,6.954567076,1.490688032,1.117120996,4.642580872,4.092914379,6.788688632,-0.571354122,5.003918485,0.915898213
3.232597144,4.693756224,6.88484806,-8.281328508,3.411734324,5.691520009,6.591323499,15.70801515,10.8702038,14.95515304,6.918944941,2.463231806,-1.056060757,3.760555756,1.724627732,6.695926198,-2.096681364,5.177831052,1.936948199
4.389424675,5.694245674,7.663565586,8.099707351,3.233888396,4.468081734,5.002051093,14.17247592,11.24945715,17.94705406,5.043104669,3.347574707,-3.206633049,3.346172989,0.054631589,5.91152193,-3.422657223,4.86565572,2.633739579
5.430872526,7.233943575,10.16798183,28.31013327,3.555305028,4.683161921,4.027809365,11.8066597,10.99558134,20.18294543,3.299962382,4.469408857,-3.536260843,4.165467692,0.319080612,4.697077069,-3.632295469,4.50277362,2.988462104
6.335282801,8.820212117,13.15863451,44.65012891,4.503957869,6.180347784,4.231879888,10.14132574,10.35419263,20.66676779,3.38736193,6.611784829,-1.611719181,5.959970471,2.299551292,3.918842346,-2.600500351,4.494542123,3.000641526
6.953278519,9.688295946,14.76013377,49.32431455,5.529610451,7.944391724,5.190012962,9.705747958,9.242017779,18.83921417,5.375930276,9.875300066,1.266708324,7.608972478,4.458096352,4.244465988,-1.112390265,4.785695439,2.716440304
7.127949891,9.216603849,13.74979476,38.84139206,5.891336958,8.736838368,5.769862962,9.805542154,7.084036899,14.83070272,7.542639094,12.95236429,2.965212861,7.986981863,5.042855799,5.340221987,-0.291988154,4.786658199,2.314024256
6.799979546,7.287958368,10.3836946,16.84186119,5.252093473,7.859998913,4.967827328,9.243128627,3.336031438,9.491322722,7.522284108,13.66588598,2.00610258,6.816204968,3.310553033,5.834385874,-0.778237382,3.760715417,2.088156774
6.013958075,4.351629889,6.174108041,-7.077955073,3.936713307,5.541674548,2.661614074,7.371399677,-1.687107138,4.213540936,3.99432124,10.56034444,-1.428341066,4.833712547,-0.037242844,4.22749687,-2.29089799,1.39242019,2.265436582
4.85207882,1.147641703,2.823371562,-22.41255373,2.700144419,2.737119118,-0.271713533,4.667771346,-6.461646487,0.527318414,-2.245499413,4.34258023,-5.646015581,3.172273165,-3.461903559,0.112780208,-3.910929293,-1.905385922,2.777281834
3.386019399,-1.711499222,1.117437658,-23.62685361,2.216953317,0.551131349,-2.523316262,2.420333137,-8.898471047,-0.518235635,-8.580650964,-2.088763303,-8.566174637,2.489707166,-5.703549868,-5.289415708,-4.825631487,-5.196474547,3.215760408
1.696208799,-4.021457735,0.548303029,-12.95561092,2.667070881,-0.311806591,-3.161427868,1.795579343,-7.704363542,1.018342697,-12.10354327,-5.290274592,-8.987842104,2.546290317,-6.548947249,-9.822493995,-4.933161487,-7.597110935,3.074674781
-0.086502287,-5.967515634,-0.1551257,1.730752128,3.670080216,0.232049153,-2.116309702,2.998500588,-3.504131102,3.744061143,-11.4430514,-3.554875397,-7.18158043,2.516781416,-6.749594013,-11.88617129,-4.844592953,-8.802645804,2.125851276
-1.798869945,-7.864883576,-2.060817231,12.31552711,4.548619447,1.776882065,-0.075743489,5.135907675,1.205695689,5.452631986,-7.728213691,1.804472037,-4.535700967,1.71367243,-7.274372813,-11.6053354,-5.324427603,-9.190629237,0.629794879
-3.33701873,-9.867488409,-5.334694766,15.14094565,4.700403302,3.718667818,2.032528633,6.856444976,3.40572509,4.303332064,-4.021000176,7.170712917,-2.629805804,0.10744846,-8.539806141,-10.71827651,-6.647356222,-9.449957049,-0.812771652
-4.732342171,-11.83889848,-9.213495791,11.87916546,3.849473952,5.500465709,3.55613132,7.275901604,1.353892142,0.004228521,-3.481853864,8.928295722,-2.387050691,-1.733936708,-10.17671094,-11.19288254,-8.376166342,-10.03013119,-1.67087466
-6.103360841,-13.43423023,-12.53416182,6.572182574,2.084656659,6.734392432,4.316868749,6.510591857,-4.411326985,-5.856097199,-7.349244353,5.796969687,-3.761674549,-3.150346111,-11.40851733,-13.60227022,-9.695865762,-10.81442709,-1.832594793
-7.485274593,-14.29582604,-14.379221,1.761961379,-0.260469569,7.241819788,4.47566625,5.451605854,-11.56977303,-10.72574499,-14.00747788,-0.401782855,-5.990411631,-3.867961411,-11.66000806,-16.53943331,-10.00209263,-11.23282468,-1.616922125
-8.683634818,-14.22194849,-14.45024942,-3.024236542,-2.775542933,7.065077673,4.275716282,4.978716518,-17.62734406,-12.76016406,-19.81610146,-6.034397301,-8.114131076,-4.07774608,-10.92071549,-17.58186669,-9.286511848,-10.70424351,-1.454869549
-9.325387089,-13.23022425,-13.06731705,-9.529922838,-5.109304265,6.442843802,3.883804606,5.220986798,-21.42965987,-12.09181801,-21.29136106,-8.057065329,-9.429934019,-4.131746044,-9.655304449,-15.10802393,-8.072023241,-9.07619382,-1.522742125
-9.1298593,-11.52772591,-10.93063526,-17.79481122,-7.044518391,5.71031291,3.390708478,5.429626045,-23.49544245,-10.71426091,-17.32188847,-5.861041474,-9.694159992,-4.187249987,-8.412535859,-9.575449779,-7.011058391,-6.75753628,-1.637348225
-8.206497904,-9.44016415,-8.82097166,-24.94899574,-8.507885877,5.135639143,2.879147919,4.570234923,-25.03937713,-10.97680334,-9.984345919,-1.364955644,-9.083097488,-4.108390975,-7.455574399,-3.266291784,-6.472807747,-4.47228038,-1.479642012
-7.10637161,-7.333080585,-7.329643133,-27.03631162,-9.518422701,4.78308856,2.445274454,2.198903113,-26.59110946,-13.77021056,-3.354141439,2.56229634,-8.012283335,-3.653149026,-6.646710683,1.30394962,-6.381610663,-2.820910886,-0.919932778
-6.516329749,-5.526694413,-6.655791042,-22.30295692,-10.09862791,4.504905305,2.148360704,-1.042924236,-27.40562681,-17.79459939,-1.002065595,4.123911918,-6.920771049,-2.72177289,-5.604106933,3.075944169,-6.3415332,-1.946297266,-0.137558822
-6.780981472,-4.208605874,-6.540389937,-13.00503352,-10.20544118,4.075811836,1.952198616,-3.719095596,-26.1699939,-20.51903682,-3.775806122,3.633213483,-6.102802786,-1.439791497,-3.987169603,2.938284621,-5.901591154,-1.507766618,0.570459627
-7.618724475,-3.378217538,-6.424176561,-4.049838159,-9.742310262,3.36817066,1.727126906,-4.506639122,-22.40443729,-20.12891129,-9.3279748,2.949865378,-5.643199181,-0.051619725,-1.736859409,2.702340067,-4.793548448,-0.951461474,1.101125903
-8.285135985,-2.866917973,-5.810876909,0.459796715,-8.660028571,2.430821359,1.316730405,-3.084960605,-17.33858897,-16.95055422,-13.70589708,3.878968563,-5.468740239,1.220927839,0.843053474,3.462373792,-3.056838453,0.122204337,1.66901146
-8.094019099,-2.438957708,-4.629423248,-0.091317999,-7.071675826,1.418326099,0.614184505,-0.362705713,-13.4318423,-13.22258526,-13.92668641,6.782251658,-5.462961139,2.218068639,3.195819907,4.71531667,-1.036090054,1.735409699,2.603610896
-6.907491068,-1.91571963,-3.30643684,-3.067441795,-5.271287192,0.446322459,-0.406030405,2.126754218,-12.7993272,-11.38424934,-9.802947044,10.38591231,-5.551175204,2.802996494,4.765138508,4.953081229,0.747715991,3.577367282,3.987871839
-5.2113847,-1.241578209,-2.428128417,-5.320907118,-3.607066469,-0.494061203,-1.708698562,3.218142124,-15.72045773,-12.23896159,-3.839171572,12.81798542,-5.697722524,2.871824212,5.268165832,3.190912872,1.835891273,5.249019336,5.466912828
-3.716403246,-0.455749864,-2.207849074,-5.897527671,-2.282901034,-1.493772881,-3.238266747,2.76807168,-20.39527156,-14.45472903,0.611464251,13.00950451,-5.853001498,2.462668946,4.823585113,0.093037882,2.093413293,6.509223799,6.42222363
-2.8108122,0.38347066,-2.198921273,-6.351842842,-1.242990546,-2.60752325,-4.943558599,1.514641943,-24.16783688,-15.78068776,1.554917161,11.39865116,-5.951152636,1.844606743,3.82831615,-2.324564786,1.825172262,7.341009648,6.391071709
-2.314178996,1.234165,-1.561147965,-8.57413924,-0.250537184,-3.774975188,-6.771077836,0.314630713,-25.30359067,-14.96416227,-0.593364355,9.477614874,-6.007087326,1.415199443,2.64463628,-2.245030319,1.605468693,7.808866124,5.391615448
-1.731805714,2.022153557,0.247096756,-12.30867068,0.877422433,-4.847172739,-8.626308808,-0.58097037,-23.99026063,-12.78704095,-3.685612844,8.618000812,-6.223317901,1.399513931,1.333017988,0.395686983,1.863887634,7.852381021,3.886135735
-0.788560263,2.559335591,2.87670255,-14.79661049,2.053132814,-5.677061301,-10.31146592,-1.60153411,-21.85896767,-11.37110232,-5.532870852,9.114468183,-6.935228721,1.583926196,-0.321356001,3.669964664,2.498910417,7.221250459,2.416456001
0.218791268,2.536032064,5.117910948,-13.00367807,2.897744846,-6.177472357,-11.47111642,-3.231755986,-20.48668292,-12.32984296,-5.264317824,10.14531965,-8.322891915,1.375291511,-2.458184679,5.021562854,2.848379751,5.644836833,1.215495515
0.565348005,1.649002718,5.622695202,-6.486684768,2.954187285,-6.298757345,-11.61251814,-5.258163991,-20.11367858,-15.29544676,-3.454121877,10.59339593,-10.05755732,0.236512797,-4.745599979,3.21233879,2.120853031,3.123736747,0.107290621
-0.360018629,-0.191566474,3.831132484,1.712090761,1.990837274,-5.976266549,-10.26974619,-6.611377073,-19.58625744,-18.0455658,-1.194329714,10.01097349,-11.21878328,-1.80768957,-6.339283848,-0.680223056,0.018931498,0.096759427,-1.243942313
-2.54637123,-2.722731014,0.414353718,7.073964577,0.180934749,-5.138431117,-7.300935314,-6.052911353,-17.51609242,-18.15259942,0.910533729,8.953562693,-10.7057555,-4.039877461,-6.367243975,-4.033990366,-2.926661308,-2.699721812,-2.963384499
-5.294296161,-5.378723981,-3.105704562,6.915326842,-1.965406817,-3.800837839,-3.167721426,-3.217604627,-13.66243495,-14.84886439,2.95805728,8.46294042,-7.988141433,-5.481300198,-4.653289891,-4.654282759,-5.624146901,-4.628711806,-4.782893136
-7.641957783,-7.521310883,-5.273996223,2.261324209,-3.859365247,-2.163460351,1.042006449,0.859883006,-9.375885516,-9.638693032,5.142010685,9.178739258,-3.680381156,-5.598103995,-2.086780953,-2.42491069,-7.139532797,-5.527598098,-6.177271347
-8.944425547,-8.709215862,-5.479049823,-3.209915802,-5.09949489,-0.592573964,3.999771278,4.272745819,-6.707391749,-5.200064761,7.084761101,10.83367522,0.579610038,-4.714154888,-0.211631658,0.64229502,-7.329642998,-5.760265307,-6.685522744
-9.167117045,-8.840493728,-4.068857636,-6.13491296,-5.584335917,0.543233018,4.816738274,5.534173272,-6.857084162,-3.46053234,7.901035827,12.53289911,3.019805562,-3.75707354,-0.193853392,1.992486231,-6.881219235,-5.873873399,-6.160395634
-8.714120541,-8.104052075,-1.84673081,-5.778199291,-5.443914939,1.074853739,3.629857536,4.678816843,-9.164741056,-4.327427281,7.050122516,13.54473346,2.862240705,-3.508203861,-1.891882889,0.515832521,-6.707727511,-6.104623503,-4.792539711
-7.998476401,-6.816985264,0.537155187,-3.864279116,-4.890561147,1.108791213,1.658960708,3.284471515,-11.43049987,-5.968759292,5.204727492,13.90538907,0.887516601,-3.964918028,-3.797857771,-2.584307519,-7.183350305,-6.123901247,-2.961200212
-7.144893526,-5.284669142,2.791125532,-2.394925807,-4.114017399,0.907955114,0.586966189,3.320368508,-11.3487595,-6.30740187,4.21431044,14.31621852,-1.034765384,-4.358469744,-4.021372824,-4.677650533,-7.842206417,-5.252130843,-1.074024037
-6.053962168,-3.758792602,4.728131183,-1.667789414,-3.268201583,0.675686433,1.579394998,5.648877337,-8.026716266,-4.515004183,5.952032205,15.43380549,-1.179906359,-3.828896053,-1.66853752,-3.635912638,-7.794810837,-3.001557817,0.507649844
-4.710178566,-2.4549355,5.955260892,-0.359170726,-2.502780208,0.42980103,4.562856714,9.314756317,-2.53737128,-1.421893725,10.82627978,17.18846736,0.894281474,-2.192175476,2.413164953,0.657971867,-6.514461367,0.468801731,1.503708638
-3.396385859,-1.540131694,5.944087329,2.539184083,-1.966159464,0.071836288,8.262110914,12.18003459,2.810891924,1.304895196,17.15055459,18.75325661,4.125538517,-0.140029108,6.140603061,6.290697561,-4.329878788,4.353929393,1.804442885
-2.574264821,-1.060261237,4.499821148,5.978481686,-1.756968324,-0.427662245,10.99489137,12.43774606,5.910238099,2.433791172,21.99804708,19.22516273,6.78581442,1.310503258,7.631674597,10.69004756,-2.205035493,7.672505232,1.603913578
-2.510061557,-0.881090062,2.177544248,7.229825424,-1.866311924,-0.923165962,11.69344473,9.868228319,6.009571835,1.901585415,23.03514129,18.44629001,7.72847891,1.652757258,6.518204019,12.28274668,-0.992602092,9.839840605,1.428644423
-2.977882503,-0.747442873,0.143503893,4.295537547,-2.167161694,-1.193638091,10.46307059,5.915842983,3.912330118,0.589731901,20.03597482,17.23549783,7.099149007,1.290629803,4.146747672,11.2444624,-0.796903135,10.89320292,1.916959906
-3.331928244,-0.470682778,-0.558642614,-1.778027957,-2.463512067,-1.172489911,8.332575682,2.585408289,1.246288733,-0.485964254,14.97852489,16.77641629,6.010353632,1.150997776,2.521388452,8.957067654,-0.985504369,11.21114188,3.399605887
-2.935004512,-0.111813774,0.202987027,-6.975789782,-2.561419911,-1.08565782,6.442397574,1.048740294,-0.596071949,-0.84950254,10.67041965,17.63051249,5.506191391,1.837542027,2.806813208,6.787631427,-0.825107745,11.002474,5.562815245
-1.623566509,0.019669867,1.497147944,-7.08115518,-2.31784455,-1.33131997,5.301113473,1.013794527,-1.167698656,-0.657635663,8.930348641,19.19944507,5.686509869,3.058090438,4.532305229,5.204914557,-0.174673671,10.0462582,7.507247733
0.157390156,-0.393110582,2.039806888,-1.019144994,-1.6603302,-2.16130227,4.631796873,1.244890465,-0.999769545,-0.327140221,9.625342688,20.12523799,5.691593884,3.826880642,6.065351907,3.814796631,0.379019932,7.950329771,8.262408326
1.660797915,-1.352150232,1.256895774,8.022553594,-0.603517285,-3.422860399,3.832498317,0.699784435,-1.084720588,-0.141299872,11.15225732,19.34540039,4.521035361,3.275032695,5.923530896,2.074873101,0.065423805,4.726775249,7.44644544
2.349469112,-2.418068776,-0.174474192,14.74884658,0.722370541,-4.600089548,2.600264605,-0.681476282,-2.196880834,-0.158519685,11.84550766,16.95182574,1.977756146,1.3771783,3.867857874,-0.052758168,-1.328731851,1.156101098,5.585076364
2.222114064,-2.945837282,-0.818727291,15.5246065,2.057659919,-5.153833736,1.190950513,-2.124040406,-4.424941293,-0.381829683,11.16196559,14.12872566,-1.05694435,-1.023202528,0.953652918,-2.067209578,-3.188767333,-1.471074716,3.805509797
1.718469837,-2.565051284,0.314078266,10.74263369,3.060614649,-4.898598497,0.143305959,-2.864734143,-7.115486603,-0.91859688,9.788825928,12.1872837,-3.246757206,-2.899388827,-1.413959298,-3.440987424,-4.535108379,-2.147794184,3.080605479
1.302663944,-1.551123506,2.802515075,3.984986845,3.426350553,-4.108133382,-0.235673141,-2.894878662,-9.226367976,-1.942024765,8.743992001,11.47151592,-3.81473342,-3.838289685,-2.588858038,-4.12107075,-4.83723181,-0.91031277,3.561189044
1.06588805,-0.760106758,4.910730249,-1.112059855,3.020359708,-3.262511367,-0.144110145,-2.946467297,-9.91943496,-3.512245969,8.325504685,11.0475443,-3.133612458,-4.26730657,-3.053415556,-4.526038909,-4.471942756,1.059416838,4.496378332
0.656149705,-1.105136958,4.757393165,-3.508516816,1.9378223,-2.65464534,-0.078318228,-3.766637586,-9.09577988,-5.451350611,7.813177721,9.472784722,-2.430482141,-4.939825794,-3.80421924,-5.05666606,-4.408851322,2.152548869,4.809256624
-0.423454758,-2.916999483,1.703092043,-4.733667362,0.444197233,-2.195538108,-0.344355081,-5.350974317,-7.545018546,-7.382128749,6.150426059,6.061308796,-2.84904397,-6.156337544,-5.327822581,-5.60610585,-5.367958846,1.404995998,3.897188151
-2.387506456,-5.660556705,-3.106441018,-6.479678507,-1.157773448,-1.581696597,-0.735275967,-6.828176414,-6.529893572,-8.869609914,3.017436211,1.634449968,-4.595067444,-7.417767461,-7.046863908,-5.561637947,-7.160471639,-0.85257985,2.056138198
-4.935460171,-8.244627085,-7.476403642,-8.275029523,-2.634437059,-0.664059157,-0.671042118,-7.111131841,-6.961935004,-9.548228974,-0.603482323,-1.872371465,-6.78786014,-7.81507759,-7.693132561,-4.340924426,-8.7875815,-3.259033869,0.224386843
-7.378218154,-9.724999446,-9.64068767,-7.591726588,-3.83409371,0.327780048,0.30968283,-5.767142439,-8.665744748,-9.210749612,-2.863152015,-2.685655915,-8.076513473,-6.809247042,-6.294438282,-2.011600687,-9.240294776,-4.421987766,-0.731331256
-9.026052969,-9.895285911,-9.392280407,-2.451027488,-4.633150072,0.928283176,2.122572276,-3.380731005,-10.29563225,-7.920516621,-2.204005582,-0.405855065,-7.526730779,-4.720703937,-2.984169196,0.55780592,-8.34845542,-3.922426502,-0.623705868
-9.569683394,-9.336596769,-8.068618008,5.835792639,-4.907618141,0.836659211,4.135231743,-1.122089387,-10.10659742,-6.138654789,1.569996781,3.732174165,-5.156993483,-2.511572672,0.984654863,2.188947044,-6.972298407,-2.591088569,0.006225027
-9.215132317,-8.90697036,-7.475507652,12.51145498,-4.592311249,0.220543124,5.587827927,0.101764768,-7.168342036,-4.696702535,7.047581815,7.698865335,-1.838180561,-1.061738493,4.001296861,2.169752732,-6.363035502,-1.869361068,0.392323445
-8.514169957,-9.077711405,-8.600616078,12.39562496,-3.788611933,-0.367501963,6.087477876,0.215825359,-2.191291767,-4.428389347,11.94012522,9.942568404,1.25447916,-0.562980384,5.048577305,0.724662327,-7.195475848,-2.744349302,0.161481487
-8.024135839,-9.628087136,-11.04303245,3.866445835,-2.805644912,-0.420629318,5.787270284,-0.155993212,2.707738128,-5.539568443,14.29932219,10.17202801,3.209920587,-0.523004444,4.186020634,-1.164318925,-9.037273839,-5.042735628,-0.429808165
-8.01078749,-9.908115936,-13.46566103,-9.459721942,-2.050883473,0.095832568,5.147507384,-0.340654255,5.261310902,-7.164065994,13.47507241,9.187379053,3.662133723,-0.319807997,2.324002866,-2.420452847,-10.66093114,-7.572073909,-0.79488541
-8.348259065,-9.415891513,-14.59772912,-20.89024725,-1.809699026,0.689123432,4.528109014,-0.188640868,4.514689091,-7.631290403,10.30517328,8.056683217,2.766258874,0.224385991,0.569669863,-2.506199828,-10.93414448,-8.957325926,-0.560106132
-8.635284481,-8.189863373,-13.98684552,-25.1022835,-2.063374758,0.718479299,3.972933596,-0.097311607,1.453898415,-5.531269047,6.53681958,7.367741667,1.037012663,0.760769499,-0.352011029,-1.592901239,-9.591471401,-8.530227496,0.122177908
-8.429993471,-6.69102547,-12.02189211,-21.44131384,-2.488193537,-0.093974009,3.338330789,-0.525956348,-1.690562307,-0.951901207,3.897153574,7.087582652,-0.818933085,0.861395349,-0.280143294,-0.233908739,-7.327304584,-6.645170392,0.74379059
-7.466775922,-5.300607602,-9.386266673,-13.5890197,-2.650015903,-1.438124225,2.592640108,-1.482859745,-2.98930584,4.109010227,3.328420927,6.970979669,-2.080890014,0.546430942,0.559060457,1.11516048,-5.21148306,-4.270264924,0.923019834
-5.759805781,-3.906051292,-6.510174714,-6.10759191,-2.26332033,-2.655097188,1.966903688,-2.456318844,-2.088944355,6.73120413,4.704955305,7.010312933,-2.250837178,0.375209304,1.825418127,2.332283435,-3.939079496,-2.245563022,0.762860318
-3.577413031,-1.989181326,-3.474060389,-0.888792727,-1.342827383,-3.232240536,1.793664613,-2.840211274,-0.289177483,4.993642387,7.048276067,7.473200814,-1.294891133,0.989782434,3.215167676,3.496284015,-3.487460312,-0.797952286,0.76256751
-1.337123985,0.802302786,-0.339277277,3.526008124,-0.169961658,-3.141622278,2.177593129,-2.461477703,0.59849408,-0.503774666,9.045771138,8.527427606,0.280395121,2.502834344,4.464536949,4.593785531,-3.362813708,0.366099337,1.350544974
0.511390762,4.072012006,2.509016197,9.359517583,0.862216931,-2.760012102,2.813878421,-1.740788046,-0.295089501,-6.761952989,9.626274209,9.863579832,1.646663417,4.27286762,5.318629595,5.383345107,-3.134482182,1.557650141,2.441712668
1.578603881,6.634281439,4.401816753,16.23263812,1.397190234,-2.474909102,3.149400464,-1.356838315,-2.25749164,-10.26010469,8.39786927,10.7264013,2.087329365,5.28124208,5.557034641,5.553285789,-2.776194242,2.672595302,3.417667365
1.610487973,7.176910538,4.825516997,20.23874093,1.184683663,-2.342019678,2.776240754,-1.721312018,-3.64277021,-9.334749605,5.822929766,10.38004907,1.366067488,4.816245116,5.063420102,5.024258545,-2.566724131,3.213692823,3.582610745
0.569697196,5.211177464,3.892374541,16.61601135,0.105753145,-2.091605953,1.732541771,-2.717656445,-3.266477447,-5.308745279,3.060947273,8.630051982,-0.234004467,2.925418054,3.871805047,4.113858675,-2.708147575,2.748455448,2.745086259
-1.288742845,1.595290195,2.416855574,4.032121173,-1.775171864,-1.453961803,0.456498715,-3.89836172,-1.434875481,-1.478792683,1.485220337,5.971637,-2.210590156,0.315710719,2.162453288,3.402427505,-3.042654963,1.409181221,1.44868858
-3.412332754,-1.833332027,1.479982406,-13.09047271,-4.131211293,-0.484355358,-0.564668393,-4.920332341,0.197540165,-0.685856846,2.011218223,3.263738107,-4.208139932,-2.152204496,0.242263327,3.394268153,-3.124274446,-0.006818274,0.635724711
-5.092439465,-3.342468059,1.770436241,-26.43881647,-6.367806642,0.426669904,-1.148124674,-5.802126035,-0.174465627,-3.298759867,4.527077296,1.227327562,-6.123615136,-3.929923495,-1.461483029,4.232480773,-2.571560002,-0.468485107,0.974203812
-5.753494224,-2.379827658,3.167987477,-28.85624529,-7.797186933,0.879062351,-1.472885673,-6.776358654,-3.171946015,-7.125669294,7.774626462,0.17482885,-7.874595743,-4.871515656,-2.433592658,5.669513693,-1.388785027,0.615339368,2.35596333
-5.262944712,0.121046844,4.85695646,-19.01421692,-7.966045165,0.831910935,-1.808529315,-7.901363491,-7.74432992,-9.252488383,9.878232243,0.115945835,-9.091736106,-4.994223071,-2.203136251,7.284096421,0.013806325,2.972634362,3.958065314
-4.05393174,2.43078125,5.881052834,-2.320585123,-6.94158813,0.669892698,-2.175195258,-8.828205667,-11.83793214,-8.301324546,9.364953305,1.019233773,-9.11275794,-4.243779241,-0.574798979,8.753830764,1.108502542,5.61838906,4.835382898
-2.916889709,3.226383078,5.76269637,12.57380758,-5.321512604,0.88380615,-2.25691624,-8.981611918,-13.67429893,-5.324337353,6.145869017,2.889702244,-7.410177699,-2.537808427,2.173497766,9.982071555,1.609887272,7.486856611,4.606608607
-2.523375962,2.460235187,4.797774843,19.12875118,-3.89699157,1.627189829,-1.665340452,-8.030312375,-12.71863456,-2.712220208,1.811013035,5.557434712,-4.166979515,-0.035396266,5.30988154,11.02411899,1.633925966,8.104854523,3.722270729
-2.963438674,1.304289741,3.871322849,16.39828888,-3.160607654,2.534639696,-0.334262091,-6.23862599,-9.75539471,-2.126988176,-1.099519335,8.423857478,-0.492110046,2.682245759,7.947337415,11.92317139,1.562792475,7.837651636,3.11821703
-3.627784694,1.251316683,3.935042913,8.512323095,-3.000693763,2.9752124,1.305597528,-4.365725997,-6.19582696,-3.214599468,-0.558153742,10.5249866,2.02702757,4.779971829,9.466469036,12.61659235,1.747423766,7.550257328,3.519184706
-3.568427432,3.044210419,5.459287756,1.045244296,-2.816558223,2.545812104,2.548697051,-3.156501856,-3.238723363,-4.120127946,3.601892142,11.00931498,2.230161629,5.623994626,9.780626678,12.98507924,2.275743749,7.945677027,4.913096724
-2.137022577,6.184185253,8.151796012,-2.749601265,-1.986089731,1.401411921,2.876706274,-2.825953142,-1.45372915,-3.270500351,9.360933088,9.716299891,0.135655134,5.178296645,9.260816365,12.98258766,2.952267819,9.062549084,6.57767031
0.528314262,9.308866138,11.07458368,-3.180052711,-0.348314343,0.150352513,2.293233315,-2.965940566,-0.898992757,-0.83990021,13.54270898,7.368242725,-3.027688495,4.01766078,8.398448984,12.71889571,3.467056962,10.28183485,7.620391932
3.525773206,11.10069959,13.08945303,-2.431565129,1.655213143,-0.598375664,1.260480897,-2.964837405,-1.46047752,1.357511863,13.64358137,5.148369217,-5.574466776,2.943787285,7.485552864,12.41372481,3.612920144,10.81062478,7.614858303
5.7324263,11.05448764,13.40793204,-1.856962171,3.283059929,-0.667141196,0.294694976,-2.601358903,-3.039904702,1.415546237,9.313753844,3.936911525,-6.389396449,2.510207461,6.552488645,12.25052637,3.406580888,10.26509322,6.863365531
6.498010207,9.612583307,11.96832446,-0.693996266,4.013559276,-0.381139357,-0.436698036,-2.308988608,-5.487138273,-1.037049585,2.517918126,3.785707581,-5.510903706,2.806486619,5.554267607,12.23783994,3.053560781,8.917291257,6.114830937
6.001816988,7.683092641,9.438446953,2.796226587,3.902351234,-0.24601936,-1.171488338,-2.851723253,-8.460336769,-4.516323891,-3.721107577,4.042133526,-3.894086307,3.597009372,4.566755491,12.18001607,2.794566144,7.437573068,5.97862129
5.028418374,5.982438615,6.832870657,8.940657342,3.533082016,-0.518086177,-2.208947595,-4.62184235,-11.43562597,-6.891487589,-7.12075924,4.00500239,-2.593777456,4.601490155,3.76176564,11.78078174,2.729990262,6.350250018,6.484032998
4.347973559,4.687221583,4.956684497,15.27104423,3.619013458,-1.021237169,-3.460608822,-7.100170915,-13.88921087,-7.034791337,-7.258393011,3.550202419,-2.023197647,5.626187462,3.173793959,10.81410397,2.725972465,5.632814029,7.096123176
4.174347997,3.564179454,4.010507373,17.57609191,4.545805562,-1.337643066,-4.30586294,-8.946152475,-15.47937033,-5.509212588,-5.343614479,3.190488818,-1.837224649,6.461787823,2.518164244,9.256379882,2.467401354,4.770619595,7.138069644
4.097173164,2.363555164,3.608283804,12.79778888,6.147239805,-1.182460884,-3.938282999,-8.749210197,-16.0706507,-3.804600846,-3.002874206,3.523992233,-1.4610208,6.738633044,1.317808462,7.302712448,1.649600028,3.223388313,6.276307516
3.506205242,1.112511225,3.191099023,1.598371377,7.810018358,-0.635456131,-1.990575101,-5.984567905,-15.6349601,-2.929382431,-1.132099133,4.568096425,-0.765456827,5.994659178,-0.683448148,5.265000239,0.212535291,0.940893564,4.71503305
2.148168503,0.104930344,2.536248465,-11.46154283,8.787159647,-0.047500164,1.032417631,-1.527037434,-14.20903801,-2.679940015,0.310840024,5.598384701,-0.293328482,3.995308874,-3.154395045,3.423308296,-1.532808656,-1.474067396,3.003379853
0.373037621,-0.33053858,1.97560284,-20.4592959,8.518305945,0.272475001,3.887216694,2.672191974,-12.0113425,-2.204660907,1.591324164,5.692384484,-0.831461858,1.054150927,-5.227411466,1.929014203,-3.001739747,-3.090060056,1.65761123
-1.107377884,-0.045420733,2.141386241,-21.65643314,6.824572727,0.305507872,5.27001549,4.608534746,-9.592445877,-1.223264,2.402856642,4.556848713,-2.678612827,-1.971814963,-6.02295562,0.819039482,-3.640679672,-3.227753215,0.904029098
-1.735117527,0.892606582,3.420696384,-15.57040761,3.958192239,0.294927286,4.609619547,3.346406955,-7.764251239,-0.620278616,1.871557009,2.925274072,-5.227875711,-4.099861852,-5.2839245,0.116185035,-3.266836644,-1.881199982,0.696529459
-1.481389716,2.306408693,5.547551324,-6.15790895,0.537193948,0.481209545,2.431414799,-0.4478696,-7.204096836,-1.710975511,-0.551201066,2.120332719,-7.249547229,-4.785043796,-3.604833151,-0.08229211,-2.209313076,0.3065356,0.910424511
-0.802925262,4.004606036,7.682921121,2.178072014,-2.622075954,0.841085065,0.0257963,-4.900992805,-7.961693466,-4.768123019,-4.139241398,3.055966392,-7.710334991,-4.209153187,-2.024943463,0.372422818,-1.125320893,2.466626529,1.485687869
-0.245190126,5.771568833,8.964634156,7.461125867,-4.76811138,1.06143485,-1.36884169,-8.020517858,-9.295269023,-8.215608608,-6.910791718,5.452910708,-6.530044816,-3.073747829,-1.265947915,1.531602767,-0.586679211,4.004160401,2.386733584
-0.025036189,7.311050007,9.125595379,10.76050434,-5.506622765,0.773337895,-1.322215148,-8.807100333,-10.08818268,-9.444154368,-6.866597576,7.931562958,-4.697511122,-2.067270787,-1.207954656,3.176857247,-0.709150097,4.834599713,3.456558316
0.08859102,8.275223179,8.689906707,14.22766891,-4.97517461,-0.146832252,-0.407279556,-7.710166206,-9.636744232,-6.811292675,-3.578971454,8.98337425,-3.630680992,-1.427432412,-1.031632667,4.783069862,-1.085554974,5.247538681,4.363974071
0.535248532,8.421788166,8.555590613,18.30075843,-3.760116206,-1.453893041,0.269374473,-6.17246488,-8.234553719,-1.249762735,1.201730615,8.116205591,-4.222124475,-0.91901519,0.07343384,5.70276589,-1.075845643,5.566385121,4.756818647
1.580201685,7.780767129,9.246583533,20.55261538,-2.559659959,-2.685209273,-0.156409433,-5.604441642,-7.059773401,3.940420476,4.577716106,6.284923233,-6.245591967,-0.188758706,2.19398883,5.493754391,-0.252789635,5.883621745,4.52150973
3.082319063,6.653745415,10.39960882,17.38891048,-1.789915544,-3.468268947,-1.778917295,-6.498723605,-7.389958601,5.149361246,4.496268295,5.224989714,-8.541471755,0.843687598,4.540488529,4.177737453,1.306225766,6.036595717,3.914397065
4.555721268,5.394496039,10.909518,7.442521801,-1.404693438,-3.754787489,-3.992969611,-8.278218636,-9.720839821,0.891104335,1.163298858,6.135032455,-9.842723524,1.893876988,5.973334592,2.234771929,3.071232623,5.775706129,3.41276457
5.440113531,4.129761905,9.67872183,-6.103624124,-1.060165434,-3.820682801,-6.058883554,-9.935213796,-13.47583403,-7.217582789,-3.27333957,8.675925895,-9.653069664,2.566378894,5.786890039,0.317450183,4.395142656,4.951594483,3.373522237
5.37670187,2.671004237,6.455814761,-16.5150487,-0.488814311,-4.049931665,-7.69569756,-10.93532664,-17.53161905,-15.6515382,-6.530634094,11.06218028,-8.563146475,2.698866257,4.147678474,-1.118699718,4.885140007,3.591947383,3.772069466
4.341457412,0.730892057,2.155807017,-17.63500551,0.229863941,-4.665535956,-9.231818911,-11.65877579,-21.10882343,-21.37690814,-7.995993729,11.24320797,-7.794564288,2.488505888,1.891695182,-2.000265649,4.571177089,1.873273448,4.245585571
2.62414535,-1.709534197,-1.592230304,-8.370725008,0.738130408,-5.585300175,-11.19768672,-13.00273981,-24.2540568,-23.60263918,-9.012444995,8.373896191,-8.300708964,2.314575353,-0.090819859,-2.510497982,3.806715583,0.073286421,4.410778488
0.724375767,-4.199652478,-3.380323287,5.895457944,0.759707029,-6.476080018,-13.69055779,-15.4321654,-27.47040527,-23.64340509,-11.3953537,3.540062599,-10.0492424,2.446603766,-1.358811445,-2.78003171,3.02267218,-1.451196013,4.184283521
-0.783228692,-5.993686039,-2.812008302,16.41075741,0.441678534,-6.948766439,-16.03580803,-18.24232923,-30.79398312,-23.22213404,-15.45711866,-0.792764128,-11.97142803,2.90352639,-1.947960802,-2.675242717,2.514664282,-2.30779339,3.825080554
-1.415735868,-6.502588642,-0.630427607,16.79580609,0.362525155,-6.765659505,-17.05769145,-19.69531343,-33.15214301,-22.75551018,-19.28769034,-2.258806746,-12.60215028,3.554051936,-2.005948997,-1.883932789,2.362797485,-2.19934151,3.662667557
-0.975349798,-5.67568168,1.864214506,7.403354315,1.156505775,-5.948436986,-15.80938851,-18.05223157,-32.69502795,-21.05743181,-20.01366484,-0.01802221,-10.97860918,4.306558917,-1.450944344,-0.23830645,2.463880388,-1.112304732,3.761655942
0.308520239,-4.001358436,3.672016936,-4.940404501,3.027889224,-4.745700726,-12.24825471,-12.81213167,-28.03255162,-16.61974878,-16.07227354,4.801899631,-7.219147741,5.165545207,-0.005040976,2.00425214,2.605309838,0.581778046,3.841447501
1.814800381,-2.126630248,4.632380232,-11.73596737,5.534271991,-3.493919512,-7.359068433,-5.244204399,-19.51988439,-9.294206239,-8.620402789,9.894882359,-2.443142669,6.093238977,2.426234402,4.186441587,2.543325231,2.25071854,3.543884175
2.80078021,-0.419316887,5.31457991,-8.687876312,7.811826664,-2.451866223,-2.619756316,2.231044955,-9.563954873,-0.905620216,-0.859942179,13.2202799,1.868380079,6.841617201,5.402073333,5.598486667,2.093628876,3.328568604,2.81450178
2.794869553,1.153996507,6.405059755,1.642642508,9.068565267,-1.695607009,0.822704957,7.423528137,-1.555468235,5.739860712,4.229835267,14.12963057,4.637921279,6.979512479,7.997342769,5.892628123,1.231194999,3.630198701,2.033322478
1.868201757,2.744631956,8.078065581,12.26402108,8.976573539,-1.128544719,2.700411232,9.564937088,1.979314561,8.659293959,5.940441295,13.48893054,5.626581073,6.161901095,9.292567789,5.251527385,0.142951848,3.405648525,1.735619495
0.582218051,4.220721223,9.813037533,17.22257194,7.709039109,-0.597608192,3.552443326,9.500176312,0.805739017,7.901999473,6.037881109,12.83839123,5.350076753,4.438091654,8.958698368,4.206379378,-0.83791868,3.076942903,2.137973001
-0.375179421,5.067450669,10.77317862,15.78616536,5.680001812,-0.039448109,4.151255295,8.8168805,-2.972220493,5.301941593,7.034613382,13.27364556,4.630398068,2.317560169,7.495696375,3.291864626,-1.413436083,2.87167621,2.894738295
-0.619732736,4.754191202,10.44902511,12.16372562,3.273007025,0.447066938,4.892292263,8.623811526,-6.27745329,3.092554907,10.02307098,14.84343655,4.121740017,0.497911181,5.944453127,2.836819458,-1.502705329,2.676344131,3.34374158
-0.264557109,3.295929121,9.089676673,11.25867986,0.792775384,0.662241238,5.585946614,8.891474705,-6.926331391,2.515717942,13.85561944,16.79686681,4.080133426,-0.548259106,5.283120228,3.021608239,-1.272641403,2.253972212,3.075358369
0.248064061,1.498344603,7.606898741,14.18127737,-1.393836684,0.463262062,5.738499114,8.764162693,-4.790048519,3.392358128,16.24601995,18.35281168,4.419935382,-0.798901937,5.92457341,4.047333136,-0.970086546,1.635841114,2.341937684
0.52551889,0.575717414,7.013417796,17.3615078,-2.780173587,-0.102574693,5.026673888,7.468871894,-1.577072805,4.730807666,15.73171846,19.30802359,4.906604077,-0.549893839,7.611808183,6.139837718,-0.682721759,1.301210555,1.915508688
0.508920322,1.336968157,7.776567108,15.98855112,-2.908543446,-0.805397004,3.559927936,5.01835278,0.488740733,5.647890573,12.78620644,20.00233297,5.303648115,-0.067768531,9.695618901,9.289198613,-0.243442948,1.904540697,2.457793222
0.449290934,3.535168008,9.516134348,8.73872266,-1.745150326,-1.393593407,1.748169411,2.154742675,0.13047474,5.809682198,9.221588986,20.73641168,5.404174637,0.64127557,11.5378759,12.94846244,0.609332979,3.706486036,3.911244649
0.62145965,5.91637103,11.23308388,-0.461718843,0.090274541,-1.791758969,-0.062398855,-0.338694449,-2.330562571,5.207291321,6.563772934,21.21641135,5.007205573,1.729338706,12.77656219,16.0618856,1.92871029,6.178704534,5.454085425
1.030862587,6.998211694,11.90371992,-5.435942809,1.532536424,-2.173913095,-1.851226713,-2.307072336,-5.447375537,3.735639194,4.927850704,20.58779572,3.931652186,3.173874234,13.36264166,17.57282069,3.380994992,8.184268828,6.118940892
1.361018338,6.046095143,11.05375983,-3.165156514,1.67435256,-2.837386467,-3.876432418,-4.287593238,-7.782812388,1.144473026,3.348883774,18.11969259,2.089819324,4.551780664,13.45183377,17.12220522,4.386840226,8.696989472,5.603473872
1.202448315,3.548046855,8.973349935,3.072323114,0.364374089,-3.961776032,-6.398688402,-6.942953801,-8.866992575,-2.551198284,1.111301412,14.01496502,-0.441662821,5.189597124,13.27628706,15.3807792,4.51546791,7.557958184,4.59163254
0.376773793,0.860513277,6.491012771,5.893072313,-1.660970755,-5.437863638,-9.436012212,-10.39124841,-9.35426798,-6.664799035,-1.303371315,9.640255942,-3.421534107,4.632532674,13.0530674,13.65520489,3.832197415,5.677083341,4.265778884
-0.894089923,-0.685165221,4.499846929,-0.012659839,-3.250210789,-6.90301851,-12.73507342,-14.02113942,-10.36093497,-9.967381215,-2.612746371,6.872964616,-6.508876631,3.072062493,12.92103751,12.97352809,2.906707299,4.481684793,5.352972768
-2.088689137,-0.550590305,3.541209715,-12.65017551,-3.590675097,-7.95548788,-15.91190151,-16.92206519,-12.5138285,-11.39574602,-2.084741331,6.953514942,-9.321129635,1.361866962,12.90363293,13.33524544,2.450739441,4.995859715,7.466987857
-2.665793909,0.881769154,3.653729715,-23.0328384,-2.695273463,-8.376210567,-18.56403252,-18.50852768,-15.38402723,-10.80065673,-0.463541196,9.661932251,-11.43429748,0.556176206,12.93165227,13.76239853,2.856524304,7.229881207,9.312452998
-2.323823726,2.805993047,4.493838616,-21.39512291,-1.278646858,-8.187829678,-20.23709557,-18.77296733,-17.67078647,-9.078140159,0.565723087,13.4427519,-12.37093971,1.275541448,12.94383012,13.18113429,3.990127037,10.31597496,9.640393733
-1.095115553,4.638913212,5.585775031,-4.827732924,-0.152706417,-7.52781671,-20.35302477,-17.98302006,-17.98324873,-7.5097566,0.004875917,16.40943104,-11.6873236,3.33946051,13.00156661,11.45943687,5.380193765,13.23729819,8.227402608
0.728748275,6.305910843,6.548232323,19.61755748,0.368704344,-6.477381833,-18.3280057,-16.18379577,-15.69020798,-6.808739959,-1.261618821,17.50488585,-9.210169314,5.901336647,13.29721939,9.725530282,6.615021563,15.54492168,6.104999474
2.746261232,8.037015379,7.230158359,39.0564042,0.60641868,-5.02160892,-13.96300156,-13.06150801,-11.29686436,-6.635479159,-0.987172857,16.99787981,-5.308034173,7.955881875,13.9981103,9.618348357,7.604980618,17.51230399,4.843590856
4.581558816,9.975564601,7.762044574,43.31122255,1.136858452,-3.184508313,-7.876906704,-8.37743488,-6.139518892,-5.965060842,2.441781865,16.03180194,-0.958282634,8.855758619,15.0291497,11.99522007,8.51591371,19.67749367,5.436737877
5.980515828,12.00807183,8.527597445,31.59509393,2.251707463,-1.201894969,-1.568916877,-2.600193158,-1.630064483,-3.983783867,8.241898036,15.67470932,2.563985703,8.532775399,16.00697173,16.12893156,9.489988057,22.23253889,7.638025394
6.874907219,13.94145474,10.02210012,12.47472268,3.707012645,0.466303367,3.12874301,2.90885036,1.454602948,-0.76418074,13.41177615,16.25187138,4.291432856,7.37788922,16.45708444,20.10574921,10.45409096,24.80298262,10.23088955
7.398322457,15.77414568,12.57963656,-2.598451024,4.936372678,1.355996592,4.989141228,6.483801012,3.214740345,2.821856733,14.9655496,17.41839402,4.112064528,5.957706748,16.19865193,22.19321576,11.20288109,26.76486875,11.97125843
7.811517448,17.70209174,16.05787486,-7.075748926,5.508489603,1.309100401,4.118537122,7.177671094,4.317793351,5.835417125,12.4597411,18.75070484,2.860649539,4.771502212,15.57648222,22.12732022,11.64656067,27.74379784,12.43730172
8.332850581,19.77626407,19.68617669,-2.594633242,5.4317139,0.620759396,1.917059051,5.446009068,5.419558501,7.994601775,8.596367375,20.20282343,1.8199295,4.121542494,15.27402012,21.26565991,11.92670611,27.79233507,12.14698664
8.961226807,21.52581057,22.27181977,4.217202581,5.077008022,-0.126083184,0.218289453,2.912310497,6.74284566,9.769459965,7.182323517,21.96522822,1.910732727,4.050759913,15.76590465,21.42078247,12.22494517,27.08341837,11.93248405
9.432640097,21.98880288,22.75994042,8.194480563,4.833821843,-0.442389563,0.15782913,1.334987337,8.072517643,11.78677291,9.989958344,23.89797981,3.104055373,4.311837446,16.81616716,23.25998758,12.41993152,25.46793503,12.15659453
9.384412104,20.28934248,20.86439143,9.774025238,4.823812351,-0.249373569,1.54819624,1.525087673,9.086689121,14.08349574,15.14316855,25.19170572,4.467207981,4.421153791,17.48000689,25.56382388,11.9666948,22.43258146,12.43615784
8.639226772,16.39983364,17.35069794,13.53212601,4.906520536,0.113605137,3.18280056,2.998872449,9.695963871,15.8806224,18.51678753,24.76215106,4.822903127,3.871749743,16.71978403,26.00973793,10.23257259,17.64750975,12.06474636
7.397442119,11.47178954,13.71401779,22.71122258,4.925250839,0.192300421,3.810031577,4.56002484,10.0934143,16.11207614,17.13880258,22.19289486,3.566180964,2.457916737,14.2390331,22.95091373,7.105682786,11.69436893,10.72457188
6.167206097,7.370031076,11.38769556,34.72544444,4.929803984,-0.212449775,3.035484525,5.28489427,10.49252528,14.30826269,11.81244873,18.4180078,1.074859511,0.499995946,10.88775945,16.83517662,3.363371312,6.263201467,8.854625775
5.459162283,5.640371519,10.96792551,41.78966123,5.159106732,-0.900826697,1.501240029,5.122606349,10.81577997,11.12533542,6.689456247,15.3942482,-1.552105159,-1.259784494,8.245975134,10.12869173,0.38625212,3.431511155,7.364707183
5.469460239,6.606938762,11.96648508,36.50927319,5.810599673,-1.458181004,0.274134016,4.709166873,10.6494404,8.072503022,5.98982074,14.79668244,-3.214939876,-2.108978935,7.597857346,5.730027694,-0.69060479,4.382009131,6.953008201
5.995622925,9.239616921,13.25284461,18.08830183,6.827979798,-1.600096898,-0.021405154,4.669966767,9.549666835,6.600949514,10.46417564,16.66177366,-3.478400901,-1.882578264,9.005728703,5.019844791,0.214180945,8.470134251,7.606788792
6.642000946,11.87758721,13.86161415,-5.835406706,7.915888759,-1.389099531,0.360306046,5.066216969,7.463536678,7.19466103,16.51014228,19.10655652,-2.755397176,-1.140951318,11.17445829,6.98611054,2.022251244,13.41558289,8.682653948
7.129438947,13.27197631,13.58707139,-23.37280131,8.76945703,-1.155865588,0.573097238,5.432335988,4.895818749,9.091207208,18.76712127,19.50361123,-1.958694448,-0.808536479,12.24758341,9.061924117,3.249061083,16.60808426,9.456858489
7.441209825,13.20765959,12.96402113,-25.63820671,9.301722887,-1.21225966,-0.106441643,5.283950456,2.638152881,10.79772414,14.20960661,16.33372575,-1.928437372,-1.487169528,11.00174372,9.032620631,3.085049912,16.67539934,9.653452646
7.694421285,12.32908505,12.70922873,-11.9287636,9.656665948,-1.609266118,-1.729274885,4.576640038,1.240170328,11.02258114,4.533617818,10.32293099,-3.022380932,-2.949837959,7.618096937,6.59203272,1.969583273,14.23041351,9.517174594
7.886867041,11.41973502,13.09931186,10.54955282,10.00367128,-2.133027537,-3.676222412,3.704830674,0.638005236,9.407966289,-5.016942387,3.961390612,-5.046150156,-4.226635633,3.523236709,3.431578178,1.191235894,11.29651925,9.423251393
7.794288628,10.76709304,13.77726233,31.66052522,10.32218197,-2.51074006,-5.111124954,3.107563836,0.253184177,6.647839423,-9.425786731,-0.241717943,-7.423136577,-4.255662136,0.459957873,1.869308345,1.819159017,9.866734166,9.421800645
7.15616664,10.10061038,14.10981276,44.10802798,10.39898298,-2.618423207,-5.450214362,2.921242043,-0.497201786,4.013158363,-7.339365832,-1.401210672,-9.397355006,-2.625841012,-0.53673547,3.097283718,3.820009468,10.64865917,9.149791946
6.002038762,9.072617539,13.77007933,46.16584659,10.05698389,-2.503417593,-4.498589269,3.035051478,-1.677541609,2.653220173,-1.618221047,-0.518199394,-10.17653274,0.147060332,0.413944248,6.349068447,6.077402745,12.84215267,8.193586634
4.797504738,7.80443126,13.05563162,40.39256098,9.401212546,-2.228497417,-2.282094465,3.457633901,-2.717593736,3.091327841,3.179218785,0.768737246,-9.091395276,3.0107745,2.367285312,9.542974944,7.300027845,14.98113614,6.569645644
4.207660032,6.997845682,12.68920933,30.41509282,8.826875258,-1.725207218,1.108414446,4.544070725,-2.801185871,5.120405761,4.21991517,1.80535534,-5.866044317,5.110662867,4.30003397,10.84714313,7.07366805,16.0978245,4.875778076
4.606598889,7.501180931,13.27428698,18.72027355,8.735775451,-0.837521461,5.416298987,6.734866161,-1.456400971,8.031019443,2.085425621,3.465088016,-0.926698453,6.283963739,5.69427518,9.975875705,6.188031525,16.31724138,3.945204735
5.720706902,9.67298478,14.83643689,6.741899142,9.177577056,0.456294959,9.965069452,9.954497809,1.105890603,10.95872367,-0.302486117,7.100031573,4.503776742,6.944847179,6.599743127,8.293714461,5.962466355,16.52124783,4.262624475
6.735531432,13.03558347,16.77956076,-3.832173064,9.7266055,1.856297141,13.61514838,13.23865968,4.138376133,13.16728841,-0.311278488,12.80530805,8.749099686,7.502813691,7.258083692,7.715162029,7.120051535,17.46397478,5.608152407
6.84033396,16.46432836,18.24021074,-10.53354816,9.727843769,2.811070551,15.18027048,15.06923344,6.826262954,14.20250953,2.453139212,18.59005745,10.4018066,7.841130029,7.677899594,9.242390954,9.135261172,19.08623626,7.211447608
5.81656547,18.75178303,18.5398634,-11.23272645,8.741963255,2.857774,14.12823089,14.31223791,8.682732944,13.94107461,6.248893892,21.3700881,9.034649095,7.320363885,7.518592057,12.18404372,10.59549696,20.53054594,8.287749933
4.212512939,19.15371827,17.4341325,-5.867711282,6.849469777,1.987151768,11.04119699,11.07085641,9.590637391,12.5712881,8.897572504,19.16831263,5.425743062,5.319551162,6.353074049,14.56603869,10.29032861,20.76663348,8.535295169
2.957563545,17.61458426,15.09134607,3.034106807,4.586646969,0.720163594,7.392168825,6.728875575,9.554972464,10.51348175,9.444033202,12.79914858,1.104485079,1.864914687,4.083738446,14.41404763,8.15558396,19.299367,8.231127045
2.709761445,14.65071987,11.95384697,11.78815905,2.585237254,-0.212547353,4.695733443,3.064092151,8.486888334,8.280513579,8.47924426,5.592594656,-2.506265377,-2.190001905,1.18895161,11.04077978,5.328334668,16.45610233,7.902151575
3.437001562,11.07836927,8.643564549,17.82394928,1.217112486,-0.373035273,3.612683784,1.077802639,6.278241477,6.313690041,7.179959522,1.218012564,-4.781840237,-5.608697219,-1.392654445,5.529613527,3.293651658,13.13918782,7.877800114
4.533502007,7.765233179,5.901937957,20.8262331,0.511656725,0.08640856,3.672128565,0.454922253,3.109416081,4.868077859,6.181853459,1.196522773,-5.976874014,-7.511752663,-2.698424525,0.1572743,2.820537053,10.31533508,8.086947631
5.336581959,5.438463455,4.422995217,21.78907983,0.355813355,0.576168132,3.813227743,0.075899274,-0.339296175,4.008707742,5.302447593,3.98560698,-6.714027736,-7.851500786,-2.269160882,-2.856911064,3.514027735,8.604391142,8.223591525
5.59974787,4.492232597,4.521900062,21.00704002,0.738127162,0.563254167,3.300991065,-0.864999677,-3.067356215,3.704899091,4.137125559,6.312234463,-7.338769444,-7.284688779,-0.481140891,-2.536632153,4.27487552,8.13448007,8.091708433
5.548976344,4.803815986,5.818282428,17.12687139,1.778922827,0.014300201,2.275067826,-2.089775273,-4.288974124,3.928090135,2.709781664,5.683941947,-7.667499598,-6.591414708,1.525346057,0.374763118,4.224718724,8.593024803,7.810465335
5.526098581,5.695452926,7.250058048,8.486031623,3.511258902,-0.575066913,1.505899372,-2.474378862,-3.947056802,4.647566479,1.449403832,2.1289977,-7.301590066,-6.129726729,2.348626912,3.864664446,3.327908971,9.342024104,7.705104474
5.575227639,6.187395871,7.570402305,-4.241469883,5.635755976,-0.597726204,1.604677462,-1.088048465,-2.787498726,5.708794746,0.594773566,-2.099289771,-6.193662576,-5.740928063,1.062860394,5.74950089,2.258547767,9.575044023,7.986830095
5.355598203,5.502994107,6.095377181,-16.62558224,7.526614423,0.134591696,2.397732691,1.872472118,-1.889479543,6.710876281,-0.204585289,-4.461095352,-4.934299514,-5.112719191,-2.181169551,4.822550666,1.716769538,8.584575963,8.502012792
4.455553785,3.544388589,3.186150777,-22.19186135,8.556508905,1.185580641,3.033717819,5.088167191,-1.967709282,7.05540879,-1.519946228,-4.056230295,-4.457264356,-4.221349271,-6.069162364,1.448272951,1.827202821,6.131792418,8.772133317
2.817291091,0.991282319,0.059547473,-16.65699036,8.512618756,1.79840078,2.755684914,7.098154031,-2.941829072,6.238650047,-3.297726075,-2.023302881,-5.351452762,-3.433340575,-8.699318771,-2.700329122,2.117073534,2.724857709,8.312331568
0.881734845,-1.10359403,-2.00160194,-1.688181448,7.758176028,1.484418644,1.677243539,7.442620536,-4.059566541,4.246166,-4.46011943,-0.259714428,-7.316454021,-3.173431318,-8.584447052,-5.607123537,2.029261175,-0.466364235,6.998593863
-0.689536467,-1.979760244,-2.484953184,14.99347801,6.971968768,0.433536514,0.86337909,6.990741151,-4.439745427,1.748192071,-3.577615725,0.291682194,-9.218236534,-3.467808427,-5.52859381,-6.040318725,1.466371906,-2.150392889,5.213657106
-1.485689614,-1.630238205,-1.904934448,23.90427564,6.637145124,-0.588161054,1.580535025,7.152050251,-3.612403848,-0.147066672,-0.213218115,0.280058154,-9.751621734,-3.800372626,-0.826828258,-4.201010696,0.87223723,-1.651633825,3.657529841
-1.611770989,-0.720517112,-1.284250318,19.8900026,6.670335952,-0.791049623,4.284122218,8.622486192,-1.693907237,-0.527632633,4.255678407,1.039400389,-8.252467774,-3.461528682,3.38736306,-1.517725296,0.79795107,0.641291895,2.93856673
-1.52634543,-0.026712232,-1.27572381,5.783829731,6.492033172,0.048928468,8.16432065,10.73311351,0.837417765,0.698179773,7.269859775,3.065166041,-5.087772646,-2.140587573,5.28644685,0.285871549,1.363353834,3.477238743,3.205851781
-1.59766879,0.179652266,-1.627704979,-9.152176329,5.500780213,1.409149867,11.65030574,11.98246791,3.498120126,2.684436021,6.909214631,5.332463923,-1.368456808,-0.277075819,4.295639299,0.277173173,2.106209556,5.517379101,4.055763637
-1.761116437,0.332430354,-1.415064541,-15.16830864,3.593879048,2.381498368,13.51333605,11.33960243,5.986951277,4.234797452,3.518960013,6.129816513,1.777173182,1.151381037,1.279901717,-1.121689256,2.355766735,6.174792825,4.773581709
-1.567057785,1.209899558,0.167580981,-8.360277539,1.331754949,2.305047241,13.72663823,9.236824122,8.12061188,4.751073869,-0.250184274,4.692956708,3.840360842,1.288478095,-2.085810188,-2.44607285,1.801956608,5.93124497,4.766069633
-0.573102902,3.293930207,3.105350655,6.949077407,-0.390144559,1.210533295,13.42461306,7.395528645,9.682117851,4.822537895,-1.181144905,2.158422097,5.064865736,0.025271411,-4.298170046,-2.174243789,0.765099843,5.903221342,3.924575826
1.251052624,6.334889637,6.514707709,21.36892646,-0.927244434,-0.223738116,14.00281562,7.568219813,10.39590192,5.882556064,2.23747157,0.898587895,6.063131324,-1.884471157,-4.726647745,0.248372046,-0.061963619,6.970348039,2.696724931
3.436454071,9.43870662,9.254623713,26.84950224,-0.30572623,-1.137611986,16.05162848,10.16259346,10.07906534,9.022223629,8.72175107,2.690284296,7.266245922,-3.322816275,-3.680275034,4.003664759,-0.171507227,9.096035398,1.817825888
5.302735978,11.59844697,10.67174012,21.83582054,0.816764217,-1.022169634,18.91325024,13.81871793,8.821531561,13.77896188,15.08945915,7.208557784,8.619356089,-3.566544959,-1.960635955,7.370930719,0.376677398,11.32515774,1.862592368
6.376792042,12.28424827,10.88791599,11.67169123,1.602717037,0.037471125,21.14487686,16.26350596,7.01369401,17.91361748,18.40960973,12.12056028,9.687045395,-2.76263841,-0.319152536,8.769540353,1.058264663,12.44968019,2.896275386
6.61871465,11.70169684,10.47327303,4.211089077,1.56452546,1.516190325,21.48765144,15.78676204,5.187984402,18.58742733,17.76994458,14.75119781,10.0072599,-1.792056143,0.831148047,7.715669033,1.362565172,11.85941761,4.44852693
6.320352618,10.59687596,9.881885767,3.972037162,0.810024319,2.818488637,19.61686039,12.2547631,3.808280108,14.30173706,14.45972203,13.99959419,9.386523972,-1.64278425,1.401362208,5.103418191,1.226581426,9.980864999,5.825789141
5.816399143,9.795631851,9.186200536,9.073542071,-0.128201137,3.576034805,16.19648602,7.005142679,3.156654201,6.246870308,10.69028655,10.99037536,7.944650502,-2.755492453,1.496802154,2.653713332,1.063400482,8.01421965,6.549543834
5.270683323,9.790192234,8.306206321,13.05430173,-0.712106943,3.709293516,12.32768153,1.852152491,3.326982125,-2.050992629,8.046757969,7.999699655,5.955824213,-4.794660278,1.339718681,1.886364984,1.381229931,7.166868892,6.619610018
4.686732039,10.58035638,7.423104062,10.09252721,-0.750102435,3.306122557,8.891648253,-1.960551656,4.206728024,-6.755142746,6.83958642,6.603807726,3.67860636,-6.962872115,1.226998429,3.244943136,2.331397461,7.904326858,6.427884422
4.068911652,11.7720036,7.076968968,-0.280006881,-0.455103616,2.490838127,6.249068088,-4.139277858,5.372594889,-6.133612429,6.562826496,6.580920123,1.315231969,-8.581697774,1.398165224,5.888265576,3.564646251,9.695671751,6.405859177
3.537020288,12.80367127,7.760570888,-12.44287855,-0.215216906,1.402155772,4.37486407,-4.988839166,6.014485364,-1.679414625,6.70809922,6.397233263,-0.927834688,-9.50022003,1.801382985,8.245751125,4.498742305,11.38363082,6.68685641
3.271701726,13.1754584,9.349876914,-18.47883425,-0.276914071,0.249414788,3.148694702,-4.855379134,5.12262957,2.918506091,7.065853056,4.75266935,-2.815199331,-10.06144984,1.956390913,8.976613689,4.756621575,11.91165199,7.043939968
3.35124845,12.62521901,10.95002285,-13.76206363,-0.567198545,-0.67369418,2.48345354,-3.922723429,2.033814311,4.29176441,7.364432982,1.808147591,-4.17789256,-10.70623195,1.157777202,7.744924651,4.412750904,10.94364615,7.136623867
3.651496393,11.2345731,11.42539477,-0.336169597,-0.75191082,-1.089213259,2.23323185,-2.44624078,-2.915825579,1.645842852,6.87464886,-0.941468178,-5.058504721,-11.55242262,-0.987682498,5.351377501,3.870639095,9.012814081,6.844922309
3.919133483,9.428767001,10.26799548,14.31066741,-0.45876462,-0.889128819,2.09218543,-1.016346785,-8.144323004,-2.82649952,4.66179492,-1.982764215,-5.740904104,-12.27252888,-4.05783017,3.165881793,3.509709814,7.14249809,6.399090111
3.96152606,7.825308639,8.08836566,22.15819304,0.494181595,-0.206075419,1.708435339,-0.407196479,-11.36899511,-5.618125649,0.453619009,-1.109645146,-6.571869912,-12.34057839,-6.829378268,2.238618861,3.413517693,6.197285261,6.190616492
3.785188292,6.951059136,6.254174113,19.74241742,1.993079416,0.680195449,0.988764256,-1.008967272,-10.80775022,-4.417041587,-4.669737678,0.390002709,-7.671391092,-11.43638004,-7.965571422,2.663288832,3.391070623,6.367004411,6.42786859
3.56249446,6.960162186,5.890727207,9.888564125,3.675905431,1.537382033,0.313797419,-2.332379032,-6.345825822,0.342104464,-8.581518687,0.82961645,-8.764464507,-9.694591975,-6.966218795,3.595246395,3.235288921,7.089047011,6.939363006
3.462832392,7.538613924,7.018590018,-0.912136006,5.078283934,2.315635934,0.386896465,-3.127418433,0.147941003,5.896143114,-9.414621042,-0.453437208,-9.310663058,-7.625904135,-4.643416299,3.889857245,2.96536812,7.440501609,7.303199389
3.502096033,8.09193643,8.537215129,-7.300492513,5.796669189,3.107349358,1.731451886,-2.184663513,5.687379669,9.0855164,-6.931284632,-2.557590843,-8.881137231,-5.792969798,-2.650777327,2.908028781,2.833566436,6.743390291,7.195656965
3.537850545,8.118679712,9.092917302,-8.373370163,5.610175174,3.97077332,4.185527584,0.718368355,7.756724701,8.327814167,-2.824515635,-3.794622954,-7.514716968,-4.494327301,-2.315896139,0.927532211,3.096741203,4.997790411,6.654763473
3.399004724,7.522348664,8.141715184,-7.200009753,4.534952689,4.784805064,6.81512218,4.46628142,5.636793361,4.313125348,0.389805132,-3.105962551,-5.765898731,-3.676382233,-3.639336991,-1.110592266,3.761194885,2.873345899,6.024828791
3.021526453,6.642256917,6.347148351,-7.251975271,2.804766943,5.284462256,8.384945945,7.185144717,0.645614884,-0.810230884,1.094113127,-0.931624855,-4.375603999,-3.101001848,-5.281300322,-2.30066793,4.531029026,1.282051889,5.630757155
2.471190088,5.984839225,4.994860458,-8.885929172,0.783493396,5.2689529,8.098558116,7.383535667,-4.79097616,-4.904468603,-0.409356756,1.156017493,-3.791305723,-2.60474452,-5.619443228,-2.369217709,5.015675334,0.83203551,5.477916739
1.852134789,5.857769913,4.913017993,-8.905076508,-1.165763951,4.809948989,6.091007966,4.852598317,-8.551412916,-6.85677372,-2.338298816,1.69890136,-3.899389534,-2.239857183,-4.086128992,-1.719368575,5.033736676,1.528522811,5.258912531
1.207698758,6.172581892,5.786527019,-3.653499607,-2.8061135,4.264312755,3.318332348,0.70562241,-9.788766121,-6.668848736,-2.93213341,0.430522839,-4.186600851,-2.206717592,-1.708717865,-0.930256093,4.767280768,2.891658388,4.67543631
0.515702251,6.538225283,6.413637793,6.906607831,-4.090229296,4.045312571,0.920850641,-3.417406906,-8.971212584,-4.995667995,-1.810332351,-1.66032649,-4.218662818,-2.662601125,-0.366781304,-0.178062645,4.635248558,4.346191056,3.789509927
-0.225336665,6.540946198,5.668919191,17.69669762,-5.131669497,4.31166471,-0.490270462,-6.365320989,-7.225076295,-2.791509627,-0.168787943,-3.243809339,-4.065856249,-3.579257133,-1.308814028,0.881481692,4.971219018,5.550211308,3.071315401
-0.92117074,5.983572312,3.369399816,21.28043017,-6.10611682,4.821415426,-1.138874245,-8.007442362,-5.634968783,-1.285670001,0.231430768,-3.721884113,-4.32731334,-4.760447317,-4.10476421,2.630775248,5.741762038,6.42140403,3.065788025
-1.41278085,4.930601321,0.357327412,13.16983392,-7.145746173,5.085032083,-1.810466459,-9.010817331,-4.984710574,-1.905567081,-1.595186399,-3.587389053,-5.703840804,-5.98378896,-6.902733067,4.83128117,6.518026407,6.91346249,3.941269731
-1.601378464,3.592056404,-2.207510067,-4.261775483,-8.287116251,4.720978185,-3.237571054,-10.16247386,-5.881631447,-5.687954208,-5.214207087,-3.857413106,-8.420136153,-7.127763264,-7.82432503,6.445883497,6.738106083,6.835599494,5.307408494
-1.553876968,2.203069009,-3.702896202,-22.43387226,-9.486567839,3.751430352,-5.586033697,-11.7957304,-8.819802637,-12.31425059,-9.191661467,-5.13818351,-11.92910544,-8.169744157,-6.403224175,6.257975229,6.09715653,5.969437766,6.47542707
-1.479929088,1.010436909,-4.330698417,-31.65938153,-10.66485745,2.612031355,-8.361572996,-13.682262,-13.86168819,-19.59041461,-12.1072771,-7.116835618,-15.13601947,-9.067422708,-3.916236893,3.912469234,4.810037904,4.433109755,6.959025304
-1.582833144,0.3205433,-4.65966913,-27.2341545,-11.72897684,1.863434134,-10.73477384,-15.3306116,-20.12573087,-24.18775533,-13.35012689,-8.842487916,-17.00311301,-9.651129551,-2.340290368,0.533898358,3.562721287,2.93677523,6.804639555
-1.902687023,0.462027832,-4.913370587,-12.25697309,-12.55515932,1.816843242,-12.01631488,-16.35751439,-25.66011837,-23.56725856,-13.22372278,-9.483272844,-17.12225763,-9.655907164,-2.780152468,-1.724820229,3.155777116,2.56810938,6.48345429
-2.283277135,1.586814163,-4.697127548,4.70014187,-12.9689184,2.345536387,-11.97507731,-16.65356541,-28.13501865,-17.88983861,-12.4967838,-8.908622874,-15.87900671,-8.904055379,-4.637954882,-1.057212184,4.033137095,4.10354188,6.453184995
-2.491248172,3.422131501,-3.436087066,15.21624168,-12.77464927,3.006554699,-10.85919361,-16.32289158,-26.1427391,-10.38686453,-11.8717702,-7.679083654,-14.13912484,-7.507614077,-6.181431261,2.635512517,5.971585918,7.294372495,6.776856475
-2.389982553,5.212132303,-1.130073684,15.8501407,-11.84757866,3.36252781,-9.191953564,-15.56408339,-20.2723075,-5.596203339,-11.71224156,-6.558193167,-12.72383069,-5.915468239,-6.016102674,7.459812035,8.130878926,10.72677886,7.122693767
-2.032688914,6.00361474,1.288856644,8.990658678,-10.2362711,3.256944893,-7.516667218,-14.62539685,-13.08890123,-6.468111793,-12.02951965,-6.009464532,-12.04721568,-4.726406228,-4.227955552,10.66422066,9.466328109,12.51054116,7.121065403
-1.617060954,5.169536836,2.398502391,-0.2473193,-8.194832325,2.855448036,-6.223582504,-13.80277445,-7.827640836,-12.35553694,-12.55668184,-6.049015455,-12.10589802,-4.360040656,-2.248388489,10.46920533,9.291278818,11.42879076,6.73347468
-1.360121044,2.831651629,1.250707011,-8.150442338,-6.105422473,2.459929734,-5.48858195,-13.36502586,-6.545024529,-19.42091846,-12.84094742,-6.448649723,-12.70933991,-4.793940196,-1.565477388,7.283565356,7.671431268,7.764838808,6.284135499
-1.40097877,-0.148792009,-1.888313305,-14.26061424,-4.336452153,2.269119188,-5.286931245,-13.38686422,-8.944368631,-23.26960698,-12.43984983,-7.001080132,-13.67618216,-5.547876864,-2.375607844,3.392246531,5.410560368,3.179826457,6.121777481
-1.786750744,-2.664156116,-5.625778499,-19.93024743,-3.137189604,2.271948142,-5.44671655,-13.63467698,-12.69705972,-21.94630535,-11.25356274,-7.598263644,-14.82132467,-5.941033228,-3.332288074,1.317163616,3.617558988,-0.324778244,6.230847394
-2.506370346,-4.032288158,-8.325606177,-25.43696329,-2.639402205,2.325904942,-5.732949696,-13.67802981,-15.06263018,-17.1273776,-9.789775851,-8.133564589,-15.81047071,-5.473306634,-2.649147948,2.048836125,3.096821609,-1.649876676,6.174143031
-3.502025635,-4.384165304,-9.143306881,-28.59090646,-2.937366015,2.31673905,-5.952071569,-13.21856599,-14.70010047,-12.68621303,-9.036717255,-8.42692678,-16.12101739,-4.105822764,0.310784594,4.444542584,3.918799933,-1.174239765,5.457227292
-4.6382168,-4.484583035,-8.469332126,-26.23904479,-4.134074603,2.247951187,-6.035618802,-12.39075027,-12.43338121,-11.77691823,-9.851908296,-8.310565206,-15.26219427,-2.283531644,4.256706261,6.200071999,5.422773341,-0.283622178,4.01508445
-5.682707942,-5.10429696,-7.507328595,-17.3616847,-6.258728562,2.194921933,-6.047023474,-11.74191082,-10.48547853,-14.64719556,-12.22955417,-7.796842771,-13.14384176,-0.701361593,6.682630323,5.612906106,6.638450922,-0.249719183,2.386269505
-6.365069199,-6.39144889,-7.357914419,-4.940322632,-9.083171384,2.189466542,-6.094580728,-11.8356185,-10.77982589,-18.74427716,-15.05718886,-7.128644134,-10.28529677,0.040749277,5.584576031,2.787870956,6.85707323,-1.313792037,1.391206195
-6.506098669,-7.700828279,-8.2951371,5.256996102,-11.99739002,2.156863508,-6.207596114,-12.76452339,-13.53572329,-20.8663355,-16.69193762,-6.621117412,-7.62474818,-0.296965764,0.910089227,-0.580655001,6.00397072,-2.625492165,1.556421376
-6.125541163,-8.018068394,-9.706092168,8.236199086,-14.12030127,1.966321462,-6.276453838,-13.99437854,-17.12164804,-19.58416441,-16.03180381,-6.426797664,-5.996467376,-1.534129456,-5.328335046,-2.587606286,4.610216608,-3.002152942,2.752145919
-5.429436929,-6.692673389,-10.63672077,2.963153647,-14.67493082,1.54313863,-6.120369971,-14.72872971,-19.19986643,-16.08723761,-13.28259938,-6.452189181,-5.637713236,-3.217235901,-10.33550016,-2.524345456,3.444068284,-1.861872926,4.334631987
-4.672048022,-3.971255079,-10.47761948,-7.248390309,-13.4375607,0.934501085,-5.646219502,-14.54528559,-18.29589453,-12.96746239,-9.794320226,-6.509566026,-6.104088308,-4.868868099,-12.25884115,-1.239828262,3.061512254,0.383773847,5.6578175
-3.9996471,-0.954690509,-9.310734531,-17.28606253,-10.95279311,0.270712931,-4.976279399,-13.78209093,-14.69596801,-12.08688557,-7.077737354,-6.542334712,-6.668695376,-6.196996018,-11.15102164,-0.278047121,3.545595851,2.702200383,6.514356171
-3.405710872,1.008756812,-7.758205278,-23.55915628,-8.31188336,-0.332306586,-4.427346598,-13.30790282,-10.1317368,-13.27601696,-5.795789384,-6.672213408,-6.891343849,-7.16248833,-8.604077438,-0.591413318,4.544559627,4.189771613,7.147836266
-2.829226639,1.109461798,-6.532201319,-25.52113597,-6.575615518,-0.827520316,-4.325239591,-13.80364038,-6.594944403,-14.77826199,-5.537155987,-6.99217552,-6.896613635,-7.891297915,-6.471704639,-1.8995995,5.522070756,4.577050661,7.867916306
-2.294791873,-0.452772519,-6.021805918,-24.56832139,-6.187590697,-1.194208599,-4.765238654,-15.11284232,-5.175744318,-14.87120153,-5.480722095,-7.309097875,-7.134700626,-8.505969665,-5.665290288,-3.146496599,6.035989688,4.162157675,8.648499805
-1.950207971,-2.595387856,-6.138120253,-21.78032252,-6.760882113,-1.350885702,-5.48467695,-16.21285813,-5.6750992,-13.20929949,-5.263364599,-7.137627026,-7.836602237,-8.993378891,-5.802478212,-3.558166588,5.904542592,3.368607286,9.08806939
-1.951022885,-3.981240318,-6.430998306,-16.80190013,-7.380486346,-1.137112883,-5.953176389,-15.88916243,-7.085394533,-10.81942487,-5.203387377,-6.035651819,-8.650491352,-9.198137731,-5.767042023,-3.326892418,5.230314464,2.406454527,8.768832357
-2.29012249,-3.757772861,-6.359065412,-8.878181868,-7.209353625,-0.425798414,-5.648072418,-13.62906387,-8.407536219,-8.919700679,-5.679558911,-4.030320303,-8.8135577,-8.946753408,-4.612895618,-3.32244874,4.330376682,1.332821864,7.680880033
-2.734925955,-1.980710603,-5.579194181,1.12603392,-5.979764366,0.700042698,-4.360756703,-10.05297414,-9.142389249,-7.725011665,-6.335052248,-1.742717973,-7.764969461,-8.215684401,-2.150333122,-4.115693517,3.621598725,0.363319603,6.314067234
-2.948809154,0.484090136,-4.152624708,9.958078124,-4.052995259,1.861908836,-2.353836147,-6.545543698,-9.196122011,-6.328166825,-6.030833632,-0.045047464,-5.708947669,-7.218407476,1.055259122,-5.225431777,3.474832225,0.010942687,5.318848702
-2.710480776,2.46949846,-2.582369184,13.64406925,-2.061931988,2.508603464,-0.272916953,-4.36528378,-8.487094762,-3.731474987,-3.807418034,0.502836289,-3.635065392,-6.335057838,4.071569787,-5.330556869,4.048912143,0.787777014,5.025726858
-2.054510688,3.100135454,-1.624105707,10.50491218,-0.455346383,2.212050865,1.144637082,-3.903260668,-6.766042211,-0.065280898,-0.08467573,-0.030166636,-2.719351761,-5.916682655,6.004582289,-3.364303832,5.162686715,2.655458088,5.239763061
-1.224390061,2.143933361,-1.907396275,2.973060294,0.697416031,0.953000278,1.411170263,-4.61661259,-3.893893619,3.139793762,3.097007894,-1.145866354,-3.534565063,-6.089416748,6.226956433,0.382300174,6.304105282,4.732379691,5.478785525
-0.495351076,-0.015978348,-3.548778168,-3.618166285,1.529827002,-0.807246093,0.504413565,-5.610629226,-0.322952555,3.943562111,3.315465705,-2.438642228,-5.672696266,-6.690258011,4.492686615,4.107798598,6.83663257,5.637943021,5.427550484
-0.032670826,-2.691176698,-6.013973249,-4.693010862,2.042251767,-2.339944931,-1.147788372,-6.343559369,2.745683841,1.483600398,-0.287881442,-3.94015947,-8.070542958,-7.375532296,1.061182928,5.549595196,6.337958199,4.348693404,5.19384949
0.10095054,-5.245609821,-8.376373999,0.150666296,1.948677756,-3.025850954,-2.895907738,-6.884338333,3.841106237,-3.23974906,-5.928197991,-5.939021254,-9.774902564,-7.821573464,-3.208256442,3.536114431,4.879906572,0.974243293,5.142553232
-0.162173815,-7.297055323,-9.850362944,6.666868567,0.875686793,-2.665532049,-4.182571494,-7.578423712,2.110567625,-7.921355558,-10.04896988,-8.424667298,-10.53941169,-7.878413357,-6.988946244,-1.095752158,3.047075211,-3.15872477,5.474403659
