Channel 1 - P4,Channel 2 - O2,Channel 3 - P8,Channel 4 - T8,Channel 5 - C4,Channel 6 - Cz,Channel 7 - Fz,Channel 8 - F4,Channel 9 - Fp2,Channel 10 - F8,Channel 11 - Fp1,Channel 12 - F7,Channel 13 - F3,Channel 14 - C3,Channel 15 - T7,Channel 16 - P7,Channel 17 - P3,Channel 18 - O1,Channel 19 - Pz
-18.49323078,-16.64873257,-23.63135065,-30.63912238,-21.35164706,-19.46741849,-17.97694576,-21.45636954,-18.87389112,-26.22463696,-17.26253859,-17.33797496,-17.36121923,-16.79384549,-18.17891153,-20.56318246,-17.64109354,-11.47436017,-19.34355197
-29.75242073,-27.58903181,-31.11288667,-22.61621698,-26.60743382,-24.83518731,-20.19957581,-24.64912629,-21.38903128,-27.14865222,-19.15250619,-25.77591958,-21.08833622,-23.14757259,-24.14611423,-26.49927843,-31.88949385,-24.61299677,-26.67541987
-33.08905391,-30.79913268,-30.34200094,-11.07035992,-23.26362213,-23.66352648,-16.92132404,-20.84213493,-17.5510068,-21.46625962,-15.01091362,-25.99159962,-18.51107828,-22.94234602,-21.24634022,-23.5476219,-37.00269545,-28.9684306,-26.97152869
-28.79750247,-27.21390758,-24.27908795,-4.335181575,-14.87669721,-18.56071442,-11.98814755,-14.00583698,-13.20541078,-14.17444602,-11.19901063,-21.08558123,-13.8058686,-18.35712289,-13.59295725,-15.56548683,-32.41139302,-24.27663166,-21.57503358
-21.62946335,-21.6829852,-18.45690561,-7.116872892,-7.459711496,-14.04123697,-9.799253155,-9.517439089,-13.59951898,-10.8432949,-12.47355478,-17.01148663,-12.04445589,-14.1592538,-7.632498579,-9.368012311,-23.57073225,-16.1135093,-14.93212774
-17.31650287,-19.28518232,-17.08262507,-17.61940339,-5.35872766,-13.20267816,-12.19638142,-10.32480381,-19.38964353,-13.76569788,-18.59601684,-18.23691335,-15.55365825,-14.20472616,-7.816318594,-9.961833215,-17.7998869,-11.71550569,-11.5607186
-18.7266646,-21.91361364,-20.53841993,-29.20887775,-8.717951477,-15.76106113,-17.48632967,-15.21441537,-26.56269007,-20.85196692,-25.15810964,-24.82404672,-22.54816614,-18.78426218,-13.98590923,-17.21173922,-19.05680106,-14.82666386,-13.23103665
-24.37645791,-27.52184815,-25.88367892,-35.20257881,-14.18080676,-18.79050648,-22.12765779,-20.31788091,-30.07333367,-27.86424657,-27.64655183,-32.90116604,-28.84407218,-24.71537675,-22.09809669,-26.26629272,-25.53295464,-23.3474767,-18.23034699
-30.11797651,-32.23505031,-29.5853014,-33.28943222,-17.92869726,-19.35635656,-23.54193619,-22.39195529,-28.00032913,-31.87983827,-25.22806489,-37.85502821,-31.0922118,-27.92562173,-27.41572949,-31.2336667,-31.64260991,-31.32170937,-22.99090883
-32.44213525,-33.39244066,-30.1317298,-26.58000734,-18.50202593,-16.84249125,-21.79220972,-21.13492851,-22.79471023,-33.05800568,-21.18086728,-37.6275834,-28.97368683,-26.42349124,-27.64036309,-29.26566554,-32.57778129,-33.50339312,-24.69864748
-30.81970952,-31.14736992,-28.58427081,-20.83003981,-17.31286266,-13.20218456,-18.98636353,-18.82117055,-18.8087261,-33.4692538,-19.83963556,-33.69303242,-24.8534713,-21.43273857,-23.83082851,-22.12062269,-27.80105516,-28.96768154,-22.98309506
-27.51249971,-27.68736594,-27.00008649,-20.06971376,-16.81134009,-11.14888094,-17.18484886,-17.87833263,-18.45210569,-34.38728576,-22.81857718,-29.31029654,-21.50592914,-16.06043308,-18.8684631,-14.36791388,-20.96138263,-21.23847856,-19.68299125
-25.37478467,-25.11789445,-26.38137299,-23.83161086,-18.1365292,-11.92972211,-16.70662366,-18.68029049,-20.34703176,-34.7201613,-27.72949286,-26.77049309,-19.94909842,-12.80927235,-15.0710177,-9.928299748,-16.6812742,-15.23649021,-17.17805219
-25.61511853,-23.93528502,-25.97745505,-27.85515896,-20.2742639,-14.50063223,-16.19029005,-19.44760758,-20.96935804,-32.09300673,-30.35459192,-25.91644602,-19.08491935,-11.97699782,-12.90760644,-9.658074823,-17.0191783,-13.68510343,-16.70415687
-27.23790454,-23.20856316,-24.38611353,-27.59627919,-21.25093194,-16.620502,-14.15610391,-18.17792786,-18.18551634,-25.57674121,-28.28224373,-24.90987347,-17.17720403,-12.03576054,-11.53324363,-11.55249079,-20.35539467,-15.69373968,-17.82207287
-28.31672005,-21.96336817,-21.26072035,-21.90165955,-20.09936081,-16.77965633,-10.55864644,-14.74104232,-13.48973,-17.45521622,-22.87859857,-22.28421462,-13.68373786,-11.36918163,-10.2376665,-12.95770589,-23.24146952,-18.22680976,-19.15110856
-27.7657153,-20.285828,-17.95593447,-14.14478132,-17.77402112,-15.30723672,-6.951596524,-11.20255303,-10.94041231,-12.18373211,-18.02015315,-18.37920518,-9.822815687,-9.728040785,-9.283653044,-12.74997084,-23.35480483,-18.85522888,-19.53888492
-26.06377875,-19.11801721,-16.47892669,-9.954904977,-16.25134283,-13.8436392,-5.193564834,-10.08010302,-13.69070379,-13.16657564,-16.81570232,-14.98551945,-7.487673441,-8.214667316,-9.410699248,-11.79418644,-21.05839545,-17.43407078,-18.71345541
-24.47928787,-19.06636519,-17.67921056,-13.11337009,-16.70730659,-13.79925221,-5.906505566,-12.09914945,-21.09384373,-19.99497922,-19.17124366,-13.67383138,-7.576993888,-8.008277869,-10.65887152,-11.63275567,-18.5220382,-15.57362802,-17.09892339
-23.68913986,-19.50163573,-20.31348049,-22.55651053,-18.44722791,-15.20212794,-8.049181121,-15.46316495,-28.88438064,-28.54429711,-22.17977978,-14.38267086,-9.241191166,-9.126959727,-11.8343698,-12.80617293,-17.5042867,-14.74582592,-15.21667581
-23.12048471,-18.93220594,-21.8675125,-32.74120717,-19.53468053,-16.8654525,-9.920563769,-17.31930066,-32.35027752,-33.98958839,-22.81416186,-15.50407386,-10.66047679,-10.38195825,-11.30759275,-14.31334113,-17.87439882,-14.88224414,-13.31266174
-21.57856275,-16.39367399,-20.49285292,-37.30541897,-18.53102949,-17.58647402,-10.63774185,-16.17492242,-29.93190776,-34.34851378,-20.47870022,-15.32343159,-10.61223747,-10.52388601,-8.516819411,-14.55596073,-18.06449117,-14.63903418,-11.46468811
-18.51979761,-12.58025847,-16.45549831,-33.5554598,-15.78741254,-17.2234733,-10.76120984,-13.18447146,-24.36460948,-31.69791397,-17.24591968,-13.4926923,-9.440309612,-9.482642334,-4.776464679,-12.79344917,-16.8214121,-12.89158522,-9.888205684
-14.76738047,-9.592651634,-11.90974768,-24.54536886,-13.15389854,-16.70232519,-11.55311644,-11.19075416,-20.51366243,-30.1373657,-15.7264057,-11.24445772,-8.616517545,-8.530594648,-2.497734452,-9.787895886,-14.5280686,-9.95888539,-8.995508445
-11.99982683,-9.375807952,-9.216145656,-17.05258602,-12.37365821,-17.02287285,-13.58973499,-12.32005208,-21.68924538,-32.25542285,-16.57776674,-10.20138682,-9.326956408,-9.180649212,-3.307277381,-7.135187561,-12.88357528,-7.41828407,-9.08176214
-11.44757714,-12.10558951,-9.203614436,-16.65940335,-13.56738462,-18.22507839,-16.00771896,-16.14952399,-27.32265071,-37.03285999,-17.88190552,-10.86195764,-11.33289797,-11.77307874,-6.58878236,-5.94888518,-13.29595587,-6.722903874,-9.952498014
-12.91987568,-15.8987376,-10.75330137,-23.39743798,-15.1121703,-19.26562397,-17.07849997,-19.96946434,-33.65451092,-40.8358322,-16.89741085,-12.09518875,-13.07995303,-15.00074904,-9.732431391,-6.057272377,-15.50163715,-7.912367154,-10.91770909
-14.97872757,-18.14786563,-11.92979175,-31.27403337,-15.00564502,-18.90653255,-15.62528765,-20.90872111,-36.66659153,-40.54391625,-12.59799308,-12.0791617,-12.94743214,-16.82658607,-10.01329551,-6.335237322,-17.67736869,-9.576512556,-11.24566429
-16.08698911,-17.43717636,-11.62012585,-32.3641249,-12.55216739,-16.8160904,-12.0678453,-18.17749175,-34.87426338,-36.14003724,-6.764196783,-9.878884112,-10.58673771,-16.06156571,-6.664114731,-5.778021291,-17.94195255,-10.07668792,-10.71790725
-15.75937143,-14.51903472,-10.31612337,-22.77926195,-8.974521167,-13.91823934,-8.215080642,-13.64913329,-29.96720341,-30.65938804,-2.698896976,-6.334553927,-7.263184439,-13.31262976,-1.504901794,-4.341096935,-15.91566739,-8.922754965,-9.795068297
-14.79980042,-11.61335354,-9.494243026,-6.199594012,-6.490799922,-11.70490785,-5.993803676,-10.40784603,-25.1398245,-27.6795258,-2.685302953,-3.526668742,-4.96000757,-10.53386844,2.376118646,-2.87000821,-12.98928439,-7.113946195,-9.228509887
-14.5147223,-10.6508742,-10.24460303,7.854129669,-6.659929451,-11.11582668,-6.159515651,-10.50478349,-22.68012229,-28.54592143,-6.314625176,-3.254060148,-4.981891072,-9.554073901,2.859840929,-2.279887161,-11.11347965,-6.202015018,-9.442673876
-15.62369905,-11.87977549,-12.35191576,10.12110186,-9.325590696,-11.91601419,-7.970602791,-13.66942353,-22.67400591,-31.59974607,-10.9750828,-5.721392355,-7.117783881,-10.75102979,0.235813319,-2.751126021,-11.19231808,-6.941596715,-10.21823634
-17.75574622,-13.87044827,-14.53355733,-2.081620581,-12.89999836,-13.02153397,-9.942406115,-17.80276706,-23.52470541,-33.8571406,-13.9310011,-9.402523146,-9.900291211,-12.86899839,-3.179418476,-3.600025998,-12.44523773,-8.689177858,-10.93724587
-19.84762271,-14.77327963,-15.50707946,-22.81069105,-15.6045015,-13.40725694,-10.92910436,-20.61448832,-23.51114112,-33.52376123,-14.1758444,-12.08887809,-11.6354843,-14.03076753,-4.811698821,-3.841299171,-13.20283792,-9.996477159,-11.15165394
-20.99928376,-13.72412303,-14.91197075,-41.22324889,-16.59592304,-12.79873494,-10.64470974,-21.000747,-22.01176148,-31.17477978,-12.62590461,-12.2666729,-11.38377002,-13.08781895,-3.539315701,-2.896795522,-12.36437789,-9.80421774,-10.95784834
-21.04395319,-11.30853775,-13.35765701,-48.43865685,-16.17004071,-11.63588588,-9.367291422,-19.22765716,-19.5962266,-28.75949412,-10.77439758,-9.85083328,-9.269120039,-10.292684,-0.10500652,-0.886045494,-10.25021989,-8.196753675,-10.85006417
-20.44542985,-8.877959575,-11.70663433,-42.69258563,-15.11044577,-10.48161324,-7.331523132,-16.13156803,-17.24235496,-27.53890708,-9.214830482,-5.922016402,-6.10577009,-6.911728712,3.847661491,1.611470255,-8.200330312,-6.159367973,-11.20650806
-19.75657217,-7.445487288,-10.34195371,-29.35168569,-13.92597914,-9.496518556,-4.50500327,-12.30732605,-15.52805572,-26.91065861,-7.370301858,-1.876188269,-2.80305722,-4.233755085,7.107313818,3.978619029,-7.385972676,-4.687791667,-11.89499456
-19.19241542,-7.10397773,-9.071061021,-16.26939752,-12.64733476,-8.442303248,-0.942547286,-8.026752172,-14.41098895,-25.14749706,-4.511353819,1.305766508,-0.004867188,-2.791182955,9.466598886,5.771283376,-7.917989215,-4.102511219,-12.37017152
-18.65440561,-7.318431385,-7.644070339,-8.325519145,-11.20410579,-7.117289603,2.747477099,-3.752896871,-13.54538824,-21.28428992,-0.925475933,3.260099582,1.935890654,-2.289381894,11.24018483,6.644094478,-8.964431055,-4.115783977,-12.18010056
-18.05844067,-7.650565129,-6.27869921,-5.226400875,-9.840143744,-5.719146692,5.450789714,-0.484730043,-12.66778495,-16.35816945,1.976602443,4.027616992,2.861674437,-2.105568401,12.41971172,6.242285247,-9.642274782,-4.437556951,-11.41985649
-17.54843526,-8.180027828,-5.621156521,-3.704034167,-9.05975171,-4.742395735,6.234834759,0.629203331,-11.70829228,-12.82090204,2.760106386,3.804862655,2.810235998,-1.831482758,12.40741879,4.310036387,-9.801651157,-5.222008212,-10.70772692
-17.3514252,-9.281675615,-6.160040616,-1.638047443,-9.138708683,-4.510807073,5.125101745,-0.829757805,-10.68403247,-12.6022258,1.234693193,2.887545933,2.093530185,-1.451994116,10.61868838,0.972820806,-10.01613551,-6.876822394,-10.68143993
-17.4411925,-11.06481335,-7.668996721,-0.300938578,-9.719237986,-4.824114097,3.229478679,-4.007216958,-9.638807114,-15.50840142,-1.323801929,1.715480871,1.264017965,-1.16494564,7.339701151,-3.103343285,-10.87950688,-9.432615306,-11.44023721
-17.40277861,-13.06780893,-9.252603428,-2.875694219,-9.958892088,-5.096869761,1.986688791,-7.188165418,-8.734416797,-19.34130703,-3.243190368,0.795631298,0.857337574,-1.137571068,3.923849513,-6.910786719,-12.3322256,-12.1385501,-12.4134244
-16.70671756,-14.50798431,-10.01468767,-10.82928861,-9.173872868,-4.88644764,2.093365038,-8.944817067,-8.323631654,-21.62254816,-3.854528522,0.447467972,1.048586013,-1.43714064,1.992956325,-9.567824786,-13.65218068,-13.76757274,-12.77185415
-15.19032789,-14.84079929,-9.780852899,-21.64103604,-7.422761853,-4.313081192,2.996357118,-9.103119053,-8.797103394,-21.44570783,-3.940973212,0.572987589,1.507691556,-2.106251908,2.244356841,-10.70430354,-14.08153601,-13.45600289,-12.03922372
-13.3060381,-14.11288394,-9.23300181,-30.13897587,-5.494074555,-3.952304065,3.397173566,-8.71300504,-10.25563001,-19.92975616,-4.822769045,0.707139131,1.616382135,-3.189399872,3.893001437,-10.48107738,-13.47354976,-11.38257742,-10.40495544
-11.87060496,-12.82566293,-9.322174004,-32.41703936,-4.280944586,-4.268133227,2.367003041,-9.041011575,-12.31816186,-18.9976326,-6.925399188,0.376068811,0.911787616,-4.616764381,5.287712723,-9.292340343,-12.36456315,-8.691455258,-8.513125604
-11.48353572,-11.49784882,-10.45607453,-28.90391669,-4.069521101,-5.101215329,0.149597971,-10.43866545,-14.31215543,-19.62343027,-9.17512874,-0.504311941,-0.579015066,-6.076265333,5.241264382,-7.470803875,-11.4459115,-6.693839031,-6.949809326
-12.08263873,-10.3596497,-12.14613296,-23.79025955,-4.33860329,-5.706249492,-2.007797531,-12.03957306,-15.72479853,-21.05694144,-9.834861131,-1.526416205,-2.366399262,-7.085642068,3.976886171,-5.259284714,-10.96529306,-5.982180798,-5.880056051
-12.99675307,-9.415298787,-13.38923863,-21.19237584,-4.211544607,-5.348622533,-2.835332245,-12.5174236,-16.49153709,-21.59536131,-8.081184936,-2.084306129,-3.845600086,-7.299778065,2.888394264,-2.992701426,-10.61224373,-6.141006073,-5.110377271
-13.43828883,-8.701893078,-13.42956372,-21.37552853,-3.1422901,-3.953713078,-2.004343316,-11.23114766,-16.81165124,-20.11545924,-4.910454768,-1.823291913,-4.674565787,-6.821752153,3.302647441,-1.185644759,-9.94649769,-6.220204569,-4.450917271
-13.02369817,-8.377797544,-12.25370834,-20.44758015,-1.257095541,-2.226708184,-0.293348895,-8.776976497,-16.65363169,-16.99726343,-2.502022546,-0.874837123,-4.899304401,-6.21129359,5.281118597,-0.311547112,-8.907947932,-5.521797068,-3.991954206
-11.9226945,-8.489366806,-10.4522927,-13.98793031,0.87024936,-1.108346343,1.124327998,-6.505187581,-15.4928055,-13.70756826,-2.502628857,0.302737232,-4.778924536,-6.111743849,7.477949178,-0.414065182,-7.897680666,-4.060650315,-4.017138743
-10.58341309,-8.663878868,-8.651299312,-1.591959409,2.71638508,-1.014235834,1.621514098,-5.449943686,-12.68579349,-11.52660912,-4.659928896,1.316545383,-4.506708958,-6.759690568,8.196176076,-0.946974806,-7.366849545,-2.408079379,-4.638016101
-9.335115744,-8.135927166,-7.056174983,11.66951373,4.093242277,-1.506815807,1.49794575,-5.587796552,-8.280894033,-10.59453482,-6.975347234,2.116106153,-4.072044712,-7.78084417,6.78601486,-1.100629011,-7.343159173,-1.15921558,-5.512694639
-8.222091313,-6.237476256,-5.479724752,18.41025285,5.015767212,-1.686023211,1.548493011,-6.007391951,-3.529526466,-10.06093877,-7.278434758,2.930143407,-3.347717255,-8.461130345,4.24131633,-0.424815999,-7.381331193,-0.51063754,-5.951869894
-7.155518846,-3.007940021,-3.73861995,14.35802467,5.400216379,-0.96932734,2.276881443,-5.76922911,-0.456108093,-9.071843222,-4.931719943,3.95024824,-2.284745534,-8.284808082,2.504682701,0.783648925,-6.995019807,-0.23410947,-5.372612492
-6.158316133,0.627899604,-1.972424486,1.700483157,5.005488187,0.403095015,3.474729506,-4.674695463,-0.587743559,-7.60492641,-1.272333704,5.067915167,-1.029187582,-7.299637049,3.037590715,1.730197559,-6.138786226,0.060623329,-3.742108945
-5.416502536,3.366556938,-0.559918301,-12.38402155,3.745930797,1.569142223,4.503317789,-3.30887671,-3.743277714,-6.389016294,1.539154618,5.912851492,0.127645197,-6.013283438,5.788510159,1.865409191,-5.245166552,0.680769581,-1.642262308
-5.079541863,4.38952141,0.262463529,-20.83029877,2.060760452,1.785370851,4.966800473,-2.396100725,-7.901869484,-6.049757724,2.273510947,6.168189453,0.909527172,-4.924342201,9.344417188,1.489139792,-4.756561255,1.793840255,0.108972384
-5.031038825,3.909710417,0.666023057,-21.3299824,0.882217447,1.090691974,5.137358564,-2.092038713,-10.41228683,-6.344137946,1.53595709,5.894714176,1.208272674,-4.098194107,12.08869282,1.624642611,-4.608319409,3.464062898,0.986841284
-4.898892094,2.947830479,1.078088883,-16.93681401,1.079894447,0.346630541,5.752431747,-1.836391805,-9.731032173,-6.233558222,1.113431349,5.583281443,1.153280625,-3.147832916,13.40534828,3.170002392,-4.206637564,5.601647521,1.039107516
-4.340932201,2.512347568,1.735676916,-12.50844923,2.7793472,0.623259891,7.383342427,-0.854930725,-6.385459707,-4.742248428,2.36901701,5.869410661,1.087121965,-1.6238168,13.98298302,6.000119535,-2.990710659,7.825254191,0.734402706
-3.356204469,2.854678004,2.38536684,-10.27684898,5.157018114,2.4192482,9.940376692,1.162635695,-2.409078446,-1.820807099,5.050593411,7.102583183,1.455350114,0.529390472,15.03447503,8.82506339,-1.084320882,9.457819717,0.546235334
-2.318199878,3.403579286,2.462868258,-8.344511609,6.96546114,5.307153145,12.72415459,3.785231312,0.309859762,1.555084448,7.493030408,9.067574736,2.611701763,2.835906739,17.11975123,10.03816278,0.610500499,9.844302121,0.623025148
-1.670075706,3.40099226,1.636308609,-3.1747316,7.418265072,8.229699134,14.93358409,6.142203141,1.451466299,4.113530181,8.016960353,11.04786441,4.578323014,4.573487638,19.54636867,8.954177368,1.063718013,8.865935369,0.780811353
-1.541251353,2.666480849,0.223617986,6.36968769,6.720064712,10.1708534,16.16637627,7.485658169,2.320679841,5.175032861,6.353269382,12.19970248,6.892402509,5.23783813,20.82989257,6.44992527,0.011463518,7.225027424,0.767317021
-1.635842101,1.82104226,-0.938745727,17.13912141,5.797489564,10.69495427,16.51855653,7.541552099,4.50341458,4.94266465,3.929733655,12.02162255,8.713922356,4.824923158,19.84591031,4.437915424,-1.691439285,6.133745114,0.537180021
-1.508162749,1.779417445,-1.125399147,23.66015595,5.462048798,10.02996909,16.29625362,6.455319987,8.231691599,4.032936302,2.793738463,10.65322802,9.249520712,3.754736134,16.77138596,4.515414221,-2.638842266,6.495434715,0.307550901
-0.985896126,2.9520504,-0.335684202,22.24587703,5.729838332,8.758804259,15.69107684,4.532392353,11.82024685,2.78656567,4.024500103,8.824664334,8.290676786,2.556480775,13.08604194,6.797044153,-1.961460533,8.155432121,0.374478275
-0.353779785,4.839814768,0.652110406,13.75068025,5.89085654,7.435567015,14.73403878,2.100852331,12.69554614,1.049530349,6.859666281,7.454936933,6.474494628,1.582188143,10.61900345,9.810462536,-0.060013982,9.859817923,0.865824179
-0.114368225,6.362778672,0.876273763,2.764980786,5.264163206,6.392310338,13.50582548,-0.403640231,9.280517242,-1.395733275,9.183423765,7.093387228,4.975477984,0.919702431,10.32703867,11.51723686,1.639004789,10.06734387,1.631085833
-0.522034382,6.649309277,-0.025770081,-5.829919048,3.964399853,5.761803012,12.30209704,-2.340137415,2.323409467,-4.23064784,8.998188374,7.527371221,4.735806069,0.471731215,11.67203621,10.6800496,1.739812599,8.075174973,2.33295243
-1.300921412,5.651105181,-1.484687584,-9.895346345,2.979803865,5.564695718,11.51285795,-3.013532464,-5.321829326,-6.490096977,5.820863955,7.846112283,5.757326707,0.062521257,13.02726944,7.595041293,-0.080575904,4.61460098,2.648552245
-1.809282229,4.126128812,-2.394405732,-10.28466021,3.451255877,5.734788574,11.30363528,-2.067709788,-10.30580219,-7.128764985,1.064330385,7.014113997,7.035530273,-0.500417553,12.82320152,3.75961713,-2.852788683,1.434766868,2.436421649
-1.528159902,3.058440474,-1.926321288,-8.65342546,5.735447317,6.103116582,11.4360918,0.198454865,-10.65166049,-5.791035186,-2.786753343,4.659233768,7.283236892,-1.362443034,10.64751672,0.856041461,-5.053590058,0.155213488,1.787774754
-0.470565599,2.99974199,-0.131094554,-5.353377724,9.030569482,6.443019526,11.46358376,2.928494387,-6.659528126,-3.093098315,-3.608337484,1.547802739,5.957143652,-2.497722075,7.558627505,-0.156165218,-5.68405192,1.221923624,0.97076425
0.82448452,3.800877674,2.107339933,0.414625307,11.87474066,6.604503352,11.16413311,5.220605062,-0.406276559,-0.159612157,-0.776310784,-0.674512774,3.783659474,-3.587023136,5.402557873,0.706420304,-4.852246158,3.70370685,0.315157604
1.694865796,4.830102841,3.677169165,8.471140262,13.10765223,6.630856457,10.79777088,6.669035589,5.616680035,2.166121988,4.595900786,-0.43725699,2.302115692,-4.061195589,5.580630417,2.796425739,-3.487139366,6.010664496,0.074416597
1.811802852,5.410275811,3.912845031,16.00227607,12.53446441,6.721192977,10.8954788,7.487696457,9.732521016,3.73817199,10.33279838,2.677419996,2.709260146,-3.397677837,8.078610779,5.320945005,-2.522724098,6.945443885,0.298551255
1.329756333,5.143115572,2.875060064,18.57335967,10.83007391,7.035123039,11.72477063,8.122620939,11.495863,4.827828815,14.30785087,7.499366831,4.894830199,-1.52267014,11.40926036,7.594127879,-2.253431875,6.333123086,0.778737949
0.65882992,4.001518989,1.149692209,13.47829898,8.880235074,7.505864402,12.92631769,8.722145886,11.33016304,5.50177316,15.37845116,11.87134788,7.472107074,1.005332979,13.53500182,9.067623306,-2.31794732,4.890963737,1.136227115
0.111419535,2.291398358,-0.559153882,2.619564518,7.185079309,7.85290799,13.71826804,8.974087527,9.924312277,5.342192544,13.7352062,13.95178592,8.840435801,3.259974125,13.18858296,9.392150943,-2.193426912,3.596235249,1.060482375
-0.256841323,0.594572758,-1.715126574,-7.908589306,5.79543314,7.814323628,13.56433176,8.485900094,7.896658887,3.851648324,10.60751945,13.3313643,8.462782665,4.540571469,10.71721819,8.62935099,-1.696197248,3.094915681,0.56948301
-0.519534914,-0.347178914,-2.021084688,-11.72305144,4.69731064,7.400771501,12.73728215,7.362557206,5.821003625,1.18704047,7.56878839,11.15898919,7.314510907,4.85528859,7.856360802,7.408242505,-1.083083054,3.502251654,0.081910229
-0.663887352,0.079785188,-1.417383681,-6.679007161,4.140465336,6.923506298,12.22791961,6.406111909,4.339087152,-1.525214265,5.818181733,9.184794295,7.090828018,4.872740789,6.544594572,6.706221126,-0.769085765,4.540350325,0.172841165
-0.557282047,1.941208788,-0.143558401,3.575059455,4.508935354,6.737407611,12.98319894,6.656051945,4.063358464,-2.730086366,5.760408954,8.445925707,8.769443032,5.32188183,7.566008981,7.221508828,-1.000845621,5.736705221,1.119551454
-0.153320575,4.494113954,1.205007801,12.28328852,5.839605971,6.908793983,15.06226868,8.574033453,5.255358328,-1.516160793,7.013525671,8.596635089,11.68713852,6.297381641,9.970461498,8.752314442,-1.77727486,6.523808546,2.560361703
0.288683319,6.420968487,1.832639973,14.34821148,7.507561789,7.114241188,17.43178626,11.53692447,7.546728769,1.634753538,8.75112008,8.374639781,13.91566311,7.062691825,11.71414437,10.14731234,-2.996193013,6.32916761,3.581660919
0.262380944,6.581933889,1.185383094,9.436296421,8.499909092,6.891659702,18.62871403,14.10214871,9.989597723,5.073779168,10.14473065,6.789563004,13.68769364,6.575294365,11.10034006,10.01472134,-4.575134061,4.809458446,3.266695164
-0.597268238,4.839518306,-0.56291429,1.276620318,8.158451051,6.048399168,17.7975202,14.89750181,11.47664651,7.058701745,10.68225335,4.044233104,10.76210461,4.3591617,7.996623572,7.739701374,-6.374192213,2.17454684,1.37074114
-2.082761311,2.310976583,-2.402496973,-5.710313632,6.782077034,4.868850965,15.27801976,13.4776265,11.28316009,6.856975877,10.26858124,1.429040351,6.642696286,1.018831741,3.93198933,4.02200628,-8.030550225,-0.695345012,-1.371628323
-3.34244414,0.735993402,-2.980728177,-9.277688528,5.516740464,3.918018693,12.27870997,10.51489599,9.392395811,5.05661988,9.155799158,0.280558156,3.470212032,-2.06597521,0.985212711,0.457921358,-8.977570403,-2.597813071,-3.586794423
-3.325711751,1.319276367,-1.445207575,-9.470613874,5.534149997,3.587590575,9.923962261,7.229484928,6.42814107,2.937227574,7.800023792,0.86855168,2.462221698,-3.676857403,0.283102443,-1.556679748,-8.767787987,-2.714435638,-4.070609944
-1.479280692,3.881184636,1.964802748,-6.639454895,7.125419495,3.769870581,8.470123246,4.553960317,3.287585137,1.50444128,6.695023608,2.131990759,3.121162535,-3.609269414,1.237553056,-1.756263258,-7.483634096,-1.185610225,-2.52703379
1.81399649,6.98599254,6.060362439,-0.020102341,9.45533229,3.950629248,7.313322317,2.681877348,0.73600644,0.976067234,6.179745166,2.482282846,3.792502247,-2.769594193,2.096948492,-1.041703003,-5.846267169,0.939857001,0.27087376
5.403046049,8.986823853,9.510271603,11.21934886,11.20480967,3.654083425,5.716766128,1.267150472,-0.810201996,1.010720677,6.244566189,1.019498194,3.065802315,-2.440243564,1.374681739,-0.628684622,-4.833249449,2.419163119,2.993715693
8.044045885,9.196923023,11.70275836,25.38627812,11.59803757,2.861251618,3.575690313,-0.018874194,-1.263569695,1.284833766,6.448032181,-1.812311285,0.865142325,-3.299557729,-0.967694062,-1.047884494,-5.042577903,2.672734661,4.557713917
9.105267512,8.279422398,12.98596142,37.11981021,10.98687932,2.035691857,1.54023063,-1.115307294,-0.729881706,1.783050629,6.079340601,-4.621981849,-1.616369318,-4.967726925,-3.510706788,-1.838653164,-6.304041212,2.100873602,4.652039628
8.816675475,7.568525262,14.11364716,39.80520888,10.52775114,1.725774263,0.414103085,-1.681685497,0.57932832,2.556227298,4.568229067,-6.150040697,-3.004824641,-6.405867656,-4.534470078,-2.15608913,-7.869427449,1.600135423,3.679001186
7.941149392,7.900854069,15.38852357,30.36584954,11.22979236,2.082209273,0.40109181,-1.508333684,2.317457862,3.304225434,1.918373882,-6.141915752,-2.900038897,-6.797404472,-3.404912934,-1.704060529,-9.030328323,1.697098402,2.26069675
7.172689624,8.929661931,16.25945275,12.53646407,13.15200026,2.71008496,0.900830538,-0.783226921,3.932438876,3.349046762,-1.171761695,-5.361139697,-2.139936199,-6.170019966,-1.072916308,-1.121507525,-9.637864666,2.059676296,0.7673413
6.724464006,9.480810183,15.74887179,-4.680128259,15.37251389,2.99209297,1.0514144,0.050837741,4.706919212,2.163247092,-3.673169582,-4.832825588,-2.004958601,-5.269122301,0.703859201,-1.441781865,-10.07911669,1.829682671,-0.769076704
6.359061215,8.628970017,13.36951018,-12.8836634,16.69744987,2.616090431,0.53457635,0.691817481,4.000730809,-0.001366842,-4.877964995,-5.013154645,-3.080737971,-4.838479496,0.767871799,-3.086512398,-10.74655071,0.49618787,-2.371542956
5.740633178,6.565450907,9.743374633,-10.13478859,16.48737244,1.863007265,-0.089399732,1.215955688,1.621025195,-2.052800957,-4.858502713,-5.557359492,-4.747783669,-4.948847067,-0.553540145,-5.303027819,-11.49749648,-1.472811611,-3.80888861
4.768116505,4.509401289,6.353175834,-2.032893895,14.94344593,1.410686713,0.157743866,1.903287807,-1.911054991,-2.781257149,-4.341922569,-5.783936388,-5.703194954,-4.943404503,-1.793027915,-6.601103099,-11.62343884,-2.844366377,-4.60214693
3.634310509,3.729879587,4.568933184,3.070632495,12.70764316,1.811404358,1.794058784,2.810132101,-5.440987121,-1.842772794,-4.058704022,-5.344805249,-5.048328348,-4.025240391,-1.608281629,-5.884507175,-10.40071124,-2.557442279,-4.371978386
2.630260632,4.504842215,4.704985978,0.940598253,10.2217309,3.063175525,4.336892718,3.517163891,-7.668543354,-0.149194373,-4.089533162,-4.510375291,-3.033469889,-1.974269966,0.088818912,-3.351028975,-7.766510944,-0.611719327,-3.213855992
1.919625378,5.899326263,5.855344042,-5.258790218,7.447729039,4.604492348,6.575612662,3.341926215,-7.814978273,0.759391314,-3.795700858,-3.895190444,-0.876203509,0.602479417,2.059710849,-0.400187498,-4.528416448,1.855078646,-1.732489203
1.480638336,6.551067773,6.6285178,-8.049209713,4.169419227,5.711231592,7.443158481,1.875684317,-6.056628406,-0.079355633,-2.461747314,-3.956875342,0.15117987,2.669556132,2.754963019,1.389654276,-1.900579496,3.389509344,-0.651004588
1.216398863,5.797685166,6.179648443,-2.516026499,0.538117958,5.967213733,6.772808731,-0.616173967,-3.40381777,-2.244792037,-0.148402892,-4.735289667,-0.393376927,3.458877796,1.55874615,1.375878237,-0.731781727,3.268042974,-0.289573689
1.073440345,4.190968081,4.72029794,8.900051573,-2.701390018,5.461672578,5.341479078,-3.297841482,-1.06207025,-4.219806739,2.005659826,-5.985947377,-1.929656205,2.907630646,-0.754580339,0.154878628,-1.047526659,1.903615952,-0.349264125
1.031038485,2.965032101,3.146499285,17.91463426,-4.575261537,4.621458441,4.211572444,-5.305074267,0.299381647,-4.560056649,2.406761233,-7.454851269,-3.40818313,1.549685801,-2.685019527,-1.146163727,-2.246473159,0.310369778,-0.205372635
0.98760557,2.913598854,2.164148261,17.10458855,-4.565791711,3.872207244,3.949074928,-6.276493171,0.838906085,-2.994966595,0.163481092,-8.954715537,-4.081644923,0.038954617,-3.199824335,-1.926937209,-3.724091389,-0.859207461,0.506503948
0.6994118,3.635665514,1.682625021,6.200217931,-3.04478815,3.403636084,4.338837933,-6.443195555,1.165192766,-0.575048517,-4.119932681,-10.20081291,-3.892591479,-1.262087633,-2.470641228,-2.581073662,-5.346571442,-1.834878879,1.488801997
-0.112845472,3.803522204,0.974926231,-7.423877115,-1.079103459,3.160042811,4.738063655,-6.250756485,1.586510743,1.200442632,-8.600376791,-10.70920802,-3.297607659,-2.340400136,-1.611163619,-3.975655661,-7.369524353,-3.356687154,1.917134711
-1.545322524,2.249751838,-0.581840136,-14.61364326,0.250671198,2.966316071,4.659822543,-5.909163144,1.615871929,1.486478514,-11.38420079,-10.05483465,-2.838843647,-3.312014308,-1.727848184,-6.435613536,-9.924697344,-5.78161406,1.044709874
-3.369601985,-1.021324007,-2.871571003,-11.82245378,0.489498096,2.630982315,4.045339862,-5.313950813,0.202028213,0.494722483,-11.77567765,-8.391977157,-2.895769184,-4.225344194,-3.124114482,-9.185333708,-12.60258024,-8.528673082,-1.173310445
-5.117270365,-4.742058967,-5.086046952,-3.838205926,-0.06069902,1.972620672,3.050051073,-4.406984434,-3.419248743,-1.054607128,-10.64704217,-6.740614361,-3.748372579,-5.088964634,-5.275493412,-10.82190125,-14.57399332,-10.43207965,-3.9218747
-6.35104869,-7.306060084,-6.416510219,0.4492493,-0.745794413,0.847794296,1.660117512,-3.592728055,-8.907732534,-2.805437352,-9.682139762,-6.588306483,-5.702641215,-6.031765951,-7.46633653,-10.49157937,-15.19599426,-10.74782542,-5.979698239
-6.915711458,-7.977249768,-6.774363905,-4.310939217,-1.104990447,-0.742080218,-0.39679763,-3.724253971,-14.74117296,-5.066896181,-10.12706694,-8.904054708,-8.96470764,-7.333053551,-9.416688538,-8.78350482,-14.58458638,-9.92895022,-6.474101243
-6.970365966,-7.419115818,-6.885099909,-15.30219406,-1.103636731,-2.522375346,-3.308625067,-5.540912428,-19.04451691,-8.229522762,-12.02231863,-13.25954598,-13.26521105,-9.19184615,-11.31524142,-7.516284572,-13.62722235,-9.423047677,-5.405872051
-6.786215932,-7.123948797,-7.635745345,-23.80731059,-0.92493766,-3.961472085,-6.739633702,-8.963674614,-20.76319156,-11.88097144,-14.42517185,-17.82906139,-17.6050741,-11.40805236,-13.29107881,-8.46514004,-13.36925684,-10.56059147,-3.588578805
-6.492678858,-8.195060476,-9.212132422,-22.46423,-0.591359771,-4.526596508,-9.784020408,-12.86019574,-20.29445252,-14.57417951,-16.28472971,-20.42961067,-20.51826669,-13.31007544,-14.91090801,-11.95451267,-14.24246104,-13.40466991,-2.07477746
-5.995805835,-10.43777709,-10.77663486,-11.453793,0.188569937,-4.051252328,-11.4673777,-15.56765265,-19.0728746,-14.66221811,-17.14604156,-19.92040712,-20.84319322,-14.09421977,-15.2657714,-16.40533021,-15.74885746,-16.52459268,-1.495192773
-5.140271596,-12.46138702,-11.01796055,1.488635318,1.788169765,-2.91823281,-11.42669578,-15.85817085,-18.41817241,-11.61906356,-17.13311063,-16.92069555,-18.49805706,-13.37008963,-13.64198725,-19.23356295,-16.84612732,-17.93664403,-1.762254702
-3.9714757,-12.70455538,-9.19004528,7.167822031,4.250776798,-1.844787042,-10.17836424,-13.65555042,-18.54440404,-6.713349894,-16.40168918,-13.28118033,-14.63201759,-11.47422466,-10.19200621,-18.48829924,-16.71696278,-16.5131031,-2.291179058
-2.860566702,-10.59874382,-5.832048743,2.05125935,7.07226411,-1.368273888,-8.697618963,-9.988059644,-18.504281,-2.337358125,-14.75341567,-10.70812791,-10.94096635,-9.259738872,-5.976496905,-14.07531641,-15.31703807,-12.77591282,-2.512621607
-2.360029101,-7.005785914,-2.575880024,-9.341078741,9.388852157,-1.418083468,-7.626260889,-6.250109852,-17.08730664,-0.395783766,-11.89253037,-9.604424144,-8.587708155,-7.494689619,-2.290121337,-7.736840439,-13.3086753,-8.479092187,-2.273362768
-2.871985848,-3.634903582,-1.135203768,-18.46467235,10.44459852,-1.348573454,-6.772170665,-3.35901372,-13.91994844,-0.992154974,-8.091866023,-8.998939305,-7.512270428,-6.34265442,0.17986531,-1.873065339,-11.49706158,-5.336521304,-1.855474379
-4.361457271,-1.899370718,-2.190362397,-19.59292224,9.996010682,-0.46153019,-5.338939886,-1.415970321,-9.866161102,-2.470972496,-4.516269166,-7.540631293,-6.647540238,-5.34645961,1.663000516,1.911268615,-10.25763449,-3.891653477,-1.660286653
-6.318863689,-2.044986922,-4.960229863,-13.79411103,8.382080559,1.36966847,-2.703695495,-0.019238183,-6.418620875,-2.791713094,-2.670752527,-4.686018755,-4.86346687,-3.919134296,2.860502956,3.544514419,-9.388666012,-3.356403046,-1.848670191
-8.001628406,-3.129072825,-7.741566353,-7.063601326,6.260334401,3.489715353,0.9196221,1.157293203,-4.60453347,-1.122281083,-3.253177638,-1.111095627,-1.901829829,-1.91848654,4.193700962,4.119743578,-8.430462225,-2.446252363,-2.226974886
-8.8014699,-3.785501473,-9.00355962,-4.628690238,4.241831014,4.880179987,4.511235499,2.06460786,-4.305562349,1.633521277,-5.361481383,1.913495161,1.413785685,0.184874564,5.446236191,4.836059392,-7.120147727,-0.480729948,-2.443513017
-8.51896221,-3.17494637,-8.268758822,-6.466167338,2.67408981,4.916675279,6.966305954,2.479242584,-4.506282682,3.762902675,-6.86377214,3.563433834,3.824126027,1.681026195,6.104290478,6.07837791,-5.600162584,2.105533001,-2.30567572
-7.405872696,-1.459995037,-6.225419338,-7.724022679,1.647915409,3.876555786,7.915815217,2.436963907,-4.187752872,4.300536436,-5.819357239,4.000713192,4.599262243,2.202083355,6.022710396,7.242056358,-4.265918841,4.148493899,-1.943589931
-5.984033109,0.448704855,-4.096876275,-3.402908079,1.119698917,2.78164158,7.973863805,2.421624402,-3.06490315,3.882590894,-1.901443204,4.00948446,4.06537995,2.004201298,5.720946294,7.298098746,-3.452722993,4.626695507,-1.688329758
-4.765523295,1.597578674,-2.790335663,6.875974434,0.998112643,2.677605395,8.222251264,3.074358924,-1.563509499,4.184914508,3.336462839,4.15762051,3.319033581,1.713382746,5.956106971,5.586632015,-3.250283541,3.305363887,-1.776357029
-4.026967919,1.601139217,-2.419306916,18.02968939,1.143731842,3.89667969,9.373753046,4.649475673,-0.149132965,6.439868035,7.620827184,4.310166523,3.403348433,1.770953949,6.92721392,2.262607608,-3.556567377,0.733406126,-2.136605708
-3.739034266,0.763275559,-2.446021779,23.14909507,1.346418707,5.858995181,11.2928104,6.698716118,1.289385584,10.29643884,9.637436461,3.939176766,4.604980511,2.071917059,7.8764883,-1.83487461,-4.243032647,-2.253694202,-2.445926314
-3.663295609,-0.281476615,-2.227077011,18.50307719,1.362780143,7.535025016,13.21017522,8.28513961,3.360261541,13.9805491,9.858316083,2.886287844,6.367509811,2.107293867,7.558101612,-5.682320656,-5.230975363,-5.027023942,-2.411135551
-3.544894951,-1.059613401,-1.509816716,5.976173698,1.015866219,8.176073189,14.3662948,8.576238784,6.407120509,15.60922443,9.829752956,1.778656284,7.785911428,1.466705072,5.270764682,-8.53658909,-6.418190526,-7.283591428,-2.038660613
-3.282554563,-1.500946782,-0.54642917,-8.580250921,0.280484698,7.741692098,14.4899596,7.346702337,9.74624955,14.55997663,10.52930852,1.607215186,8.210910541,0.237209097,1.586024863,-10.09452387,-7.581984912,-8.83696501,-1.65200324
-2.970524772,-1.802433139,0.178298812,-19.26864493,-0.714829679,6.74221382,13.73634542,5.013101404,11.664716,11.7894792,11.21953223,2.77726787,7.495053768,-1.065954165,-1.913388199,-10.37253234,-8.421294256,-9.419541812,-1.622502443
-2.784939262,-2.10147739,0.340368534,-23.1162882,-1.758519014,5.709512887,12.24982723,2.233997927,10.34857134,8.908246149,9.857686033,4.501008697,5.800971489,-1.972054751,-3.753785038,-9.529681805,-8.75137862,-8.764399529,-2.028216724
-2.796083439,-2.277157483,-0.005983834,-20.29669224,-2.627850281,4.788084822,9.87427739,-0.532933805,5.136701804,6.852405842,4.838586171,5.184140647,3.290739031,-2.493224565,-3.659203174,-7.823536265,-8.683624766,-6.904901187,-2.539839129
-2.856656529,-2.055766299,-0.503413856,-12.43324086,-3.113994939,3.781088705,6.375146952,-3.135368339,-2.813620432,5.27838436,-3.299921871,3.618311318,0.069327898,-3.110816534,-2.695703114,-5.691200848,-8.598418395,-4.376718961,-2.665401061
-2.678936023,-1.315641603,-0.754136097,-1.193314551,-3.029960523,2.55229777,2.007539588,-5.466033888,-10.95909498,3.135070807,-11.64013773,0.049863331,-3.560343232,-4.294038548,-2.328352827,-3.782448117,-8.887579322,-2.06723299,-2.186032635
-2.075089529,-0.304454023,-0.566571761,11.54506452,-2.268452183,1.364568595,-2.144722179,-7.175361887,-16.63008366,-0.151982357,-16.45520867,-3.785593896,-6.846240124,-5.966033075,-3.171278673,-2.787392621,-9.653396584,-0.766517275,-1.425462538
-1.189054478,0.447684454,-0.046239556,22.7231786,-0.919445012,0.804534211,-4.522953609,-7.726250046,-18.30681416,-3.944078,-15.54648523,-5.777207931,-8.723438414,-7.407594893,-4.490846605,-3.087664624,-10.60789431,-0.744471496,-1.090199467
-0.519391647,0.471541059,0.470927452,28.14264831,0.644338953,1.329411893,-4.031183979,-6.822998714,-16.17576266,-6.737176416,-9.717377706,-4.893655637,-8.397344646,-7.730234146,-4.896608619,-4.460488939,-11.261369,-1.669971843,-1.748200693
-0.668034516,-0.323486972,0.554309438,24.34780987,1.838890945,2.82716672,-0.893184082,-4.84702489,-11.77977212,-7.289385561,-2.377445301,-1.886134248,-5.988729197,-6.559631984,-3.640362933,-6.100946882,-11.25691956,-2.915975044,-3.329700162
-1.962007993,-1.634835775,-0.194501123,11.16672865,2.125669582,4.591453161,3.279036931,-2.846820792,-7.128146948,-5.579799616,2.420940165,1.27055874,-2.689302532,-4.369577183,-1.404523213,-7.040358757,-10.59778826,-3.999544143,-5.068094203
-4.214879433,-3.07729863,-2.034126163,-7.303754666,1.320286589,5.769183643,6.367727443,-1.965601232,-3.813308229,-2.826377119,2.215536162,2.745936634,-0.172939408,-2.174144438,0.130786125,-6.745072648,-9.613506761,-4.829821506,-5.990696973
-6.80988025,-4.542403281,-4.968492141,-24.44992403,-0.263485312,5.939540582,7.02694938,-2.67715698,-2.489194421,-0.591877611,-2.685216191,2.010041628,0.433449749,-0.803904395,-0.371711095,-5.498582719,-8.722128516,-5.620324295,-5.63550232
-9.049080846,-6.257762602,-8.635740665,-34.58121013,-1.962777136,5.370434428,5.479440549,-4.416601239,-2.783614315,0.271282301,-9.582614768,2.3833E-05,-0.671887447,-0.330512186,-2.751618004,-4.262790018,-8.185889321,-6.59092777,-4.452753799
-10.51066964,-8.444221736,-12.28543599,-35.59433153,-3.128906317,4.76305738,3.293108346,-5.929089813,-3.577246192,0.032681986,-14.8845131,-1.68726682,-2.021925319,-0.08477297,-5.350029483,-4.052968811,-8.023020887,-7.719878655,-3.546246723
-11.16035085,-10.84969891,-14.94806993,-29.08137952,-3.463797653,4.707200438,2.326567981,-6.110265615,-3.567012706,-0.353721038,-15.81336659,-1.884615891,-1.801897782,0.760804401,-6.200166658,-5.221944627,-8.086201585,-8.7251009,-3.896998445
-11.17528064,-12.62027213,-15.80997165,-18.26078918,-3.108128089,5.283420831,3.593654973,-4.721621894,-1.96944697,-0.051965675,-11.56742348,-0.46958514,0.942264747,2.512423373,-4.483268277,-7.159293397,-8.19569486,-9.255763269,-5.624239022
-10.68040152,-12.74962251,-14.64428845,-5.797393575,-2.449454774,6.097459225,6.782717194,-2.457784299,0.943849586,1.169874104,-3.599204184,1.759984869,5.605290479,4.700073612,-1.119248197,-8.655181982,-8.217756895,-9.128504073,-7.843579646
-9.656230689,-10.8591716,-12.03636237,6.684849582,-1.823956706,6.663448407,10.63541473,-0.352297596,3.868301724,3.049034037,4.983205937,3.656244983,10.30153723,6.414397859,1.931923487,-8.709332393,-8.072255831,-8.44140621,-9.253033284
-8.098810569,-7.699346897,-9.195863646,17.47252265,-1.340975109,6.784115662,13.78483281,0.977358197,5.203527309,5.23755988,10.68972876,4.261095304,12.94272162,6.94224922,3.064850029,-7.220690101,-7.727061923,-7.508021689,-9.031142056
-6.254932197,-4.87307024,-7.37737225,23.77136655,-0.929481094,6.62209845,15.42576476,1.642954168,4.150275145,7.508622212,11.19373182,3.070078743,12.42129101,6.208939182,2.029513624,-5.049337153,-7.221859639,-6.672285926,-7.390027846
-4.657300172,-3.847060088,-7.203866832,22.48970637,-0.51058904,6.451962321,15.45097502,2.144084596,1.403446251,9.57217816,6.504133528,0.091840333,9.166891147,4.729886672,-0.158317828,-3.38866065,-6.695840093,-6.120395267,-5.383918754
-3.849180582,-4.917286783,-8.306829685,12.60086817,-0.108502721,6.357160363,14.15816774,2.716661834,-1.188028176,10.80633846,-0.931997322,-4.145969735,4.781249344,3.173384214,-2.185391965,-2.904288618,-6.361631009,-5.79161025,-4.135837704
-3.982105038,-6.926446715,-9.543880435,-2.938523063,0.206277372,6.157219844,11.9142414,2.97884589,-1.902659646,10.374139,-7.473587548,-8.657789895,1.052999022,1.908651474,-3.422248063,-3.286672451,-6.413425526,-5.435870534,-4.075825709
-4.628908945,-8.02544284,-9.697370468,-17.7866887,0.476168607,5.618928197,9.069058205,2.228987634,-0.476615643,7.840421461,-10.33524454,-12.27705175,-0.993170137,0.864712463,-4.157412207,-3.559423751,-6.929956909,-4.794983841,-4.750634986
-5.016818267,-6.978011801,-8.226984174,-25.47943555,0.947384827,4.740216706,6.087614208,0.183310167,1.592312861,3.845882893,-9.220916674,-14.17599813,-1.456704699,-0.262238886,-5.032021762,-2.903612015,-7.847856935,-3.811257397,-5.302430011
-4.547910285,-4.051476608,-5.588114866,-23.21548006,1.972920042,3.831825939,3.633982082,-2.474578176,2.134289096,0.172881202,-6.405390501,-14.35998962,-1.214292041,-1.682776245,-6.290072136,-1.350489269,-9.015192165,-2.725952138,-5.195402023
-3.220469471,-0.812740785,-2.904165669,-13.37838113,3.767352311,3.306873704,2.393967704,-4.270690857,0.040586998,-1.082044833,-5.103248745,-13.72546048,-1.207027591,-3.340288575,-7.534157387,0.20759387,-10.25737629,-1.968378172,-4.603109231
-1.622054335,1.024015369,-1.218961394,-1.650234361,6.183178204,3.35083826,2.694580283,-3.833658465,-3.724296883,1.204152881,-7.204176092,-13.51130567,-1.87582815,-4.981384164,-8.151876585,0.701085879,-11.38646384,-1.867698208,-4.173478428
-0.500049427,0.816616881,-0.846043187,6.819019008,8.674630707,3.753242315,4.210143289,-0.903692926,-6.722613349,6.328906117,-11.99020756,-14.45826248,-3.068358479,-6.348476526,-7.957803972,-0.278413383,-12.16805532,-2.372460352,-4.402321736
-0.251939148,-0.647319813,-1.257618698,10.29886063,10.4885997,4.048040028,6.028336316,3.303596819,-6.881433365,12.02919467,-16.77494282,-16.29660511,-4.361726897,-7.304951181,-7.42662147,-2.1485766,-12.33684346,-3.009139205,-5.151416407
-0.730538704,-1.891881504,-1.563153331,10.44447732,10.97783809,3.853665163,7.095948882,6.72035644,-4.146190091,15.77397838,-18.96278503,-17.98751616,-5.46486051,-7.811945657,-7.292553762,-3.768619875,-11.72355563,-3.171904432,-5.708616756
-1.483845852,-1.957171717,-1.202156125,9.797832632,9.871149855,3.144215993,6.780399589,7.670803678,-0.598006137,16.24416067,-17.93451398,-18.55625336,-6.370840989,-7.833726872,-7.875278557,-4.276130897,-10.42875183,-2.580331697,-5.335539225
-2.182956734,-1.083984666,-0.333411252,9.189262402,7.380526941,2.247073814,5.190849707,5.898536025,1.117565482,14.01195283,-15.31754198,-17.85896103,-7.18588832,-7.305138439,-8.740444313,-3.658959004,-8.87644161,-1.565755595,-3.858507958
-2.850398054,-0.356827619,0.352551474,7.256351557,4.120525124,1.585082179,3.064253136,2.663981876,-0.173782321,11.00133197,-13.49970895,-16.66211179,-7.848272134,-6.210554417,-9.010102212,-2.629848415,-7.629795615,-0.921958093,-1.837769351
-3.702745089,-0.658248665,0.230146113,2.32138372,0.892119048,1.374450357,1.307732658,-0.153240107,-3.305703158,9.166465537,-13.64840736,-15.97825872,-8.037270211,-4.693391542,-8.076061669,-1.952606455,-7.044492326,-1.365283512,-0.194637256
-4.781326576,-1.842418203,-0.722258758,-5.202356325,-1.583509399,1.503359461,0.494610985,-1.307598291,-5.764675509,9.329969971,-14.85559766,-16.22136783,-7.395058451,-3.067404229,-6.125335868,-1.805360319,-7.010629613,-2.968190617,0.40665501
-5.740307064,-2.814780713,-1.843681061,-12.14372055,-2.890737177,1.657792904,0.611403333,-0.910602993,-5.720028791,10.93067465,-15.05728908,-16.88562233,-5.892402662,-1.68014828,-4.041544887,-1.70055113,-7.013297016,-4.993212087,-0.035402794
-6.017776076,-2.414827653,-2.211723296,-14.41839211,-3.022995706,1.571922696,1.172990905,-0.133332218,-3.418990378,12.72790514,-12.89483788,-16.99216006,-4.008153432,-0.711777258,-2.751745042,-0.985191572,-6.506263927,-6.282976931,-0.92857093
-5.262153673,-0.327776499,-1.232907084,-10.02370793,-2.315997755,1.208438138,1.596755825,-0.14944288,-0.821968561,13.84178153,-8.933796864,-15.89319235,-2.509667022,-0.060427316,-2.521549939,0.54680297,-5.327372464,-5.952295747,-1.526271255
-3.642037872,2.731899382,1.023968815,-0.809610188,-1.235378684,0.756278185,1.591208417,-1.134321497,0.16453051,14.35002368,-5.24297298,-13.74475033,-1.939902924,0.589233837,-2.72864435,2.466862683,-3.826504403,-3.903769844,-1.392457408
-1.755667878,5.655707618,3.947358984,8.456844712,-0.129903123,0.482141626,1.331626397,-2.08410868,-0.665773647,15.0722505,-3.734163932,-11.28827723,-2.186428284,1.548980815,-2.27680798,4.087000437,-2.600379299,-0.83134572,-0.591480657
-0.202678512,7.774973762,6.801979145,13.17115261,0.903574111,0.564816589,1.334249007,-1.596376213,-1.681444678,16.79817704,-4.674881325,-9.204194295,-2.496512566,2.900635361,-0.356717184,5.033425141,-2.055170166,2.231598911,0.451202908
0.821384356,9.147849945,9.106681553,11.95242318,1.96326588,1.021168477,2.115893134,0.976318147,-0.863109009,19.58731931,-6.57776161,-7.650607471,-1.990163038,4.4036636,2.953350815,5.490602968,-2.162489198,4.44464012,1.246418171
1.565481518,10.10864758,10.72990933,7.535059355,3.15222381,1.74070957,3.844962314,4.88102728,2.435801503,22.65060414,-7.469437527,-6.374299453,-0.333298779,5.591720213,6.616568786,5.900833192,-2.599322987,5.405613329,1.481601965
2.377745248,10.60094324,11.72809248,4.876597725,4.419634352,2.568275177,6.192389139,8.338498732,6.93262536,24.85751454,-6.409448313,-5.211061608,1.92739268,6.00069111,9.124752483,6.40713611,-3.115375102,5.040773633,1.106072229
3.295103726,10.02154363,12.14541641,7.769096829,5.574620795,3.364887308,8.474291177,9.688620898,10.50967701,25.46364545,-4.019629355,-4.423192765,3.650714827,5.404206281,9.265612396,6.568428587,-3.764608278,3.38075585,0.297365824
3.945935701,7.801965959,11.96445584,16.20169987,6.463732419,4.021947009,10.00395432,8.479208762,11.96742278,24.53397925,-1.724901347,-4.50124749,3.840867273,3.938247908,6.771872072,5.640454141,-4.768380365,0.508127888,-0.618974186
3.863890921,4.204891154,11.20752857,26.17831624,7.148853308,4.451414002,10.44195054,5.708905312,11.89051169,22.79494222,-0.517260367,-5.609462319,2.325025794,2.056598137,2.529872181,3.212848189,-6.13672236,-3.275998655,-1.272739623
2.940112362,0.522633558,10.03428528,32.09476931,7.90461902,4.586490124,9.935503755,3.06587785,11.88704986,21.06909433,-0.358102213,-7.244332354,-0.119459118,0.338311464,-1.771620695,-0.33323612,-7.432360767,-7.294117646,-1.38734471
1.607979404,-1.657598943,8.703876315,30.1753659,9.004998251,4.40576304,8.977474618,1.749712973,12.91730396,19.72814588,-0.621691302,-8.51230063,-2.27969137,-0.764047005,-4.417074738,-3.945430973,-7.964642745,-10.60636836,-0.924596609
0.579391285,-1.604755544,7.431024236,20.82568593,10.46571995,3.966260275,8.100215866,1.757709009,14.25285843,18.56100125,-0.968715221,-8.846075434,-3.285088923,-1.115216071,-4.502679426,-6.51867488,-7.311980674,-12.41061413,-0.139222239
0.339540926,-0.035879558,6.292417907,8.430168747,11.97403053,3.418983985,7.618362161,2.137450014,14.06805982,17.13747326,-1.679410841,-8.516127151,-3.085414151,-0.9296344,-2.387207027,-7.528723613,-5.735575393,-12.44387766,0.546164376
0.819483174,1.435246425,5.299168848,-1.295127879,13.09477868,2.985997017,7.574433808,1.952105788,11.21804951,15.37915599,-3.0865399,-8.413887531,-2.308573024,-0.625298331,0.543641902,-7.208705372,-4.0850266,-11.04710034,0.814020216
1.517617627,1.624778388,4.577954592,-4.726875469,13.60109692,2.893032655,7.871067528,1.160056543,6.656840714,13.88010772,-4.724438035,-9.218481447,-1.657103793,-0.578403615,2.718405091,-6.193991188,-3.206727092,-8.821238078,0.695699384
1.961576951,0.811831851,4.469517663,-2.309200974,13.64944211,3.271930655,8.431925335,0.696600183,3.166151511,13.67382549,-5.195262791,-10.65076088,-1.343660764,-0.919926852,3.336656546,-4.985748461,-3.305206347,-6.15912693,0.583867309
2.118394344,0.592089206,5.400739577,2.263875667,13.63031358,4.071207445,9.235478554,1.688833614,3.448234336,15.53093205,-3.135710212,-11.51238702,-1.006256133,-1.490764995,2.813403526,-3.676479652,-3.783125198,-3.055261235,0.963786905
2.412642438,2.617698582,7.587165898,5.124314187,13.79892848,5.029244577,10.20548277,4.426781372,8.030736314,19.24132942,1.419631599,-10.56585681,-0.139871327,-1.968085278,2.384362084,-2.093866734,-3.708635454,0.648513971,2.03961352
3.346973881,7.218517464,10.79597232,5.366836108,13.99414108,5.751530401,11.09251016,7.912879855,14.66306668,23.42211977,6.526464822,-7.572003725,1.339662835,-2.062252935,3.132991896,-0.139032832,-2.53885916,4.821363676,3.540114913
5.046582332,13.01411314,14.37757322,5.839483604,13.70317346,5.880941989,11.50415859,10.36894438,19.74481455,26.1017063,9.350170594,-3.616660771,2.885515747,-1.646197347,5.151749467,2.034232479,-0.512664847,8.837882985,4.869735447
7.096857508,17.81931477,17.56339761,10.77189991,12.45184384,5.282109005,11.11127409,10.34957467,20.74441394,25.81852879,8.131121424,-0.413873111,3.657235414,-0.747097496,7.484832202,4.143734816,1.59310689,11.84252735,5.506386334
8.788967323,20.09946142,19.81000922,21.8306114,10.22314165,4.12939878,9.887318678,7.663410228,17.81707507,22.57417264,3.620881567,0.888503394,3.153356024,0.552392548,8.914159507,6.033785206,3.111259382,13.29715725,5.350174965
9.562058059,19.82743859,20.94129001,35.63368634,7.56828311,2.831962224,8.183343644,3.470369801,13.48689616,17.99160708,-1.200027487,0.464988245,1.644659759,2.188812872,8.975822862,7.775698081,3.972735297,13.35694121,4.763384071
9.305117351,18.15469924,21.02824007,44.97142682,5.312791264,1.831630597,6.558951017,-0.454242893,10.74752363,14.49033262,-3.030554382,-0.440155216,0.063027901,4.09394003,8.380656523,9.516149649,4.634911328,12.75085682,4.284351368
8.335906055,16.3215024,20.17864801,43.31764009,4.078216482,1.397744673,5.482936294,-2.720572486,11.0585694,13.92515654,-0.439093708,-0.521820396,-0.583676426,6.107534232,8.469733253,11.2564644,5.553383029,12.26212351,4.2470607
7.146150384,14.81144864,18.47043191,29.58736121,3.972482198,1.543814291,5.117793457,-2.920334507,13.63982859,16.51747639,5.224422217,0.654888518,0.151840967,7.939281261,10.12228433,12.82498951,6.699079617,12.23923849,4.592981612
6.150642413,13.42275703,16.09356255,9.59851323,4.644884238,2.096607413,5.321919184,-1.546167594,16.36331355,20.7550702,10.77967463,2.503718771,1.913340607,9.260527115,13.00613692,14.09466797,7.564448785,12.52221916,4.989082692
5.601189279,12.02427384,13.52516739,-7.089194965,5.601277198,2.833137143,5.816452017,0.512499797,17.36463112,24.32590746,13.25934784,4.056531118,3.830698024,9.887230145,15.80423752,15.21118349,7.648419528,12.78824382,5.121932946
5.634409424,11.12871497,11.48634998,-12.9088093,6.493368672,3.563211774,6.34121049,2.421868341,16.13946179,25.48639908,11.59683655,4.769515161,5.097748097,9.914511386,17.24971441,16.53951108,6.972333972,12.95466975,4.924391971
6.311880059,11.62667629,10.60897198,-6.601162298,7.178077447,4.109206215,6.676345338,3.540105847,13.50065325,23.99773251,6.952791506,4.825568297,5.42234247,9.677158959,17.115435,18.29832098,6.149911792,13.25593496,4.582724562
7.573140372,13.87582652,11.02687207,6.817596146,7.59089057,4.253412835,6.577112893,3.361739899,10.71829146,21.07547469,1.754416945,4.783400359,5.075846552,9.538685669,16.32278689,20.19711587,5.933993022,13.94373134,4.36413577
9.166394501,17.02987767,12.23312152,20.07685544,7.647937341,3.77172551,5.784831749,1.574731491,8.662048396,18.46411708,-1.675488622,5.004205086,4.584213243,9.651004689,16.06829656,21.46980988,6.627130905,14.92926535,4.425398746
10.68195434,19.35852804,13.37234924,28.38800186,7.325635533,2.592498806,4.209892531,-1.65371074,7.525510919,17.30540696,-2.038083803,5.408740337,4.337606903,9.85924101,16.71088811,21.38745985,7.856784713,15.74427243,4.730526149
11.72058545,19.44031922,13.78997675,31.39508911,6.837964775,0.972926866,2.180744695,-5.400715008,7.098456765,17.5464944,0.724918617,5.721619865,4.394951651,9.821194684,17.39419283,19.8828837,8.887116107,15.89080374,5.086577705
12.08074564,17.27980945,13.4334556,31.39740138,6.676302495,-0.490009799,0.509160394,-8.106686637,7.156529997,18.21085833,5.634428403,5.866183843,4.567702291,9.252960837,16.7752465,17.7490095,9.175376642,15.27079189,5.230927479
11.80737625,14.37798613,12.80239372,30.03614011,7.367536419,-1.108555417,0.200640491,-8.228102178,7.629559969,18.25525501,10.99352668,6.062557315,4.659498099,8.127381482,14.28143871,16.17871365,8.69939861,14.29738423,4.925231312
11.06684842,12.63212259,12.50366908,26.68558947,9.077719695,-0.502823018,1.910647392,-5.102661544,8.562736065,17.37623013,14.84277337,6.535405987,4.664261772,6.700642378,10.82478511,15.96415786,7.829276382,13.57971778,4.065148951
9.982792338,12.93599718,12.78382655,19.92137429,11.38651653,1.118454669,5.4934472,0.561759552,10.07779814,16.22421402,15.7103319,7.17701143,4.79979584,5.372613872,8.3055055,16.98684012,6.939958997,13.46809196,2.802858222
8.608626636,14.61751347,13.41208806,10.38492989,13.47220238,3.024100822,9.983187804,6.968275629,12.4037928,15.91990809,13.49780324,7.577404969,5.380750287,4.488193799,8.224745511,18.40498161,6.160287744,13.86849081,1.597120546
7.066781778,16.14017369,13.9712161,1.910663911,14.61975987,4.3705137,14.05800447,12.13956317,15.80435655,17.2254362,9.878508313,7.446283527,6.614402387,4.191329492,10.48434126,19.35411044,5.456930051,14.46296628,1.063962427
5.686067596,16.42006213,14.25717867,-0.693579981,14.67210241,4.694538661,16.68364043,14.85618433,20.229321,19.9134471,7.583558343,6.997778421,8.41340235,4.376331956,13.34101504,19.53616648,4.875778703,15.06722899,1.608029801
4.925194625,15.6108256,14.40791203,4.371427952,14.05872918,4.150821479,17.50349156,15.02605068,24.83705317,22.72416058,8.665954118,6.82973933,10.3039183,4.722548591,14.58130521,19.18843217,4.597818846,15.72134841,3.032151997
5.05733554,14.72066392,14.64977934,13.70075982,13.37241051,3.332547075,16.75251914,13.34020725,27.85871279,23.94238123,12.79131183,7.296802729,11.49651607,4.794937454,13.02670733,18.51160327,4.6875658,16.39631691,4.456741476
5.855298931,14.4875274,14.92642551,20.63606295,12.84800349,2.818297497,14.85381083,10.60317254,27.20482869,22.28742832,16.93061813,7.931153127,11.15605918,4.212928023,9.24415896,17.1706643,4.800020139,16.64353893,4.747426646
6.601011205,14.60119327,14.81161554,20.22285029,12.19253861,2.783723864,12.08915535,7.304967318,21.67928773,17.65368919,17.03612535,7.547940203,8.814723507,2.867758507,4.998736392,14.45536884,4.253919651,15.66524591,3.276537502
6.523777975,14.02858595,13.86358267,13.22608591,10.92324498,2.952120992,8.621435579,3.702719431,12.06238152,11.31361009,10.80856264,5.126307505,4.739694135,1.092220042,1.977464527,10.08029683,2.57762799,12.93711504,0.505939144
5.401025672,12.1666521,12.15501787,5.718002473,8.928258271,2.887084871,4.788074593,0.18655573,1.202516776,5.446260276,-0.355837846,0.821051503,-0.00053233,-0.367740034,0.817581998,4.93889232,0.131254889,8.941890105,-2.107645994
3.852169866,9.743977351,10.48990019,4.310343149,6.753253264,2.370930602,1.301544192,-2.544000296,-7.176372007,2.177400921,-11.79628662,-3.790324328,-3.920855283,-0.665376124,1.108058547,1.022833828,-1.807758241,5.311653744,-2.947554802
3.031251727,8.554957308,10.021135,10.82850803,5.329250386,1.567769541,-0.951165247,-3.761034003,-10.35129336,2.578361291,-18.33844308,-6.587306712,-5.833114552,0.655330451,2.158511587,0.338766454,-1.760312604,4.041217103,-1.306100232
3.874201175,10.1210102,11.47110987,20.8741384,5.323690491,0.864499974,-1.453365092,-3.251800245,-8.016235771,6.137383148,-17.58467045,-6.350161629,-5.497582404,3.281709954,3.713792412,3.518886354,0.854071703,6.191555872,2.067077627
6.427126228,14.3521252,14.527249,27.57251881,6.625366706,0.547342535,-0.529436117,-1.63478281,-2.342172957,11.01418828,-11.46441746,-3.669766012,-3.778457234,6.169292813,5.945751271,9.19071067,5.08033284,11.02139311,5.37446134
9.756694179,19.35805568,17.90775159,27.40253663,8.382062374,0.588551617,0.702445856,-0.104384796,3.331448044,14.97790827,-4.935474917,-0.57648737,-2.142436043,8.058954375,8.799779403,14.68012947,8.852551576,16.27568203,6.89124119
12.52046275,22.64011539,20.10266176,23.11055706,9.570967315,0.702594426,0.969337809,0.270878491,6.309878485,16.52466549,-2.73185914,0.866379892,-1.777104313,8.196245939,11.42321656,17.62035999,10.28140069,19.52169619,6.018319734
13.78265187,22.75739965,20.27509807,21.06267664,9.662760311,0.595071806,-0.33506,-0.812874502,5.747573676,15.53784333,-6.409531642,-0.065970297,-2.896424608,6.783485914,12.3656832,17.32692794,8.892326723,19.6074822,3.536924611
13.49175442,20.17451785,18.67801693,25.14280695,8.886247619,0.176462976,-2.749121817,-2.792681456,2.637474169,13.11882374,-13.65728533,-2.459445901,-4.704305427,4.834177674,10.54299891,14.96363901,5.883408624,17.19755488,0.938143209
12.31984461,16.68291946,16.31286837,32.46158572,7.942655637,-0.431944199,-5.082987689,-4.717691579,-1.18210845,10.74020007,-20.17329056,-4.69492714,-6.040276372,3.501304602,6.211934984,12.44627444,3.202920701,14.03918073,-0.613488819
11.05925077,13.94761714,14.13222213,34.90804574,7.45532493,-1.072466495,-6.264393436,-5.898969454,-4.209807492,9.31049729,-22.62906075,-5.795701087,-6.245345571,3.3293829,1.08144694,10.97286203,2.153920989,11.57812543,-0.899748198
10.07679169,12.38134221,12.41063811,25.78874322,7.605719731,-1.717224863,-6.062440021,-6.222526067,-5.910061913,8.772607595,-20.63526943,-6.086336135,-5.624008435,3.943358985,-2.671792326,10.28811821,2.580515065,10.00066533,-0.471148347
9.211813701,11.17344925,10.73157031,6.345409594,8.186054308,-2.457372785,-5.150395766,-5.946411774,-6.561753577,8.45046326,-16.52463018,-6.692163865,-5.172597854,4.375185391,-3.824302065,9.144197081,3.198834651,8.376040085,0.036002176
8.101587673,9.280368665,8.525532157,-13.4128726,8.915748811,-3.324286919,-4.479950217,-5.256788461,-6.644509458,7.80516122,-13.38929586,-8.391632157,-5.783382489,3.771693112,-2.902842816,6.469475034,2.7206814,5.667873785,0.423491393
6.583808877,6.425648307,5.67148265,-20.8909401,9.671443734,-4.12315465,-4.473224512,-4.03894319,-6.292345812,6.978921878,-12.9282049,-10.83312118,-7.516742583,1.970787144,-1.732885117,2.274201074,0.835019042,1.728725627,0.85914372
4.82913892,3.283100479,2.671055635,-9.874796079,10.42674246,-4.466311746,-4.674977867,-2.080880181,-5.170952363,6.705924957,-14.5557229,-12.75272237,-9.475860742,-0.435894324,-2.052487075,-2.352473039,-1.682976861,-2.50134794,1.372813773
3.152748509,0.835048835,0.295530683,14.38651569,11.02398116,-4.023553728,-4.140533744,0.501981008,-2.787940933,7.687968705,-16.1484276,-12.94921088,-10.3704309,-2.535396304,-4.210535245,-6.008960816,-3.693485234,-5.652515219,1.507278513
1.748253104,-0.379776717,-0.958044732,37.97263727,11.08306954,-2.804931576,-2.256439599,3.058999711,1.020484636,9.954063305,-15.66381663,-11.1645373,-9.360756872,-3.655126136,-6.896610327,-7.803816326,-4.544748933,-6.814860068,0.56657529
0.615201513,-0.432018708,-1.143653594,47.16047005,10.21501537,-1.236162129,0.646499801,4.66984014,5.748319945,12.71587252,-12.44873481,-8.177916146,-6.596912847,-3.654021631,-8.075020762,-7.626336329,-4.355733979,-5.950140862,-1.684547993
-0.285605229,0.43826551,-0.687086517,37.1274927,8.384343477,0.065722098,3.369063423,4.713776516,10.24140128,14.81907175,-7.499500642,-5.148540816,-3.11849234,-2.815157057,-6.424751205,-5.844252666,-3.623042258,-3.633702554,-4.514886405
-0.864629748,2.250464209,0.035233135,14.4840304,6.073391825,0.673543626,4.569281981,3.286609332,13.11194294,15.42635236,-2.745136628,-2.856570554,-0.242301923,-1.536497683,-2.265573482,-2.903654705,-2.662494833,-0.535765475,-6.489598807
-0.949883608,5.127187503,0.961250731,-7.770679532,4.043047031,0.613310962,3.62368077,1.121555793,13.37779461,14.42998871,0.028109692,-1.465814872,1.116942368,-0.122864538,2.628216287,0.728054188,-1.474510315,2.812864699,-6.450570172
-0.533136474,8.660882582,2.232778921,-18.90067887,2.845585398,0.315849911,1.031501562,-0.91431627,11.0132028,12.36638729,-0.017063484,-0.851701099,0.784923599,1.189944875,6.12506548,4.311913108,-0.125783558,5.83429196,-4.498153519
0.045401669,11.54373979,3.85361529,-16.550589,2.493331666,0.293723727,-1.880536138,-2.325506792,7.086378971,10.02259178,-2.514422672,-0.993871034,-0.773323873,2.110372261,6.961890757,6.728650362,0.83247198,7.673446807,-2.143360543
0.228935684,12.10337062,5.476439782,-6.541052384,2.575288682,0.780431042,-3.706628976,-3.096206201,3.338506376,8.110810892,-6.13336369,-1.945224259,-2.78873925,2.295210967,5.324028809,6.87774939,0.473695788,7.392867096,-1.38496029
-0.33639933,9.559270645,6.556213851,2.657580922,2.72037593,1.586025652,-3.654958832,-3.376548348,1.375832968,7.201134273,-9.121221038,-3.420977354,-4.485167478,1.55826561,2.514345341,4.428394297,-1.806619198,4.620409299,-3.310232272
-1.431372677,4.993815116,6.760633085,6.227990136,2.978837575,2.253111168,-1.79855178,-3.110140641,1.91219753,7.761153643,-9.972227574,-4.550220144,-5.231838512,0.109245926,0.043199316,0.303002441,-5.57115716,0.125508569,-7.239166586
-2.308514144,1.037258356,6.270015011,5.616606034,3.743633797,2.378454286,1.144195038,-2.013978387,4.502591569,10.01880977,-8.049340693,-4.266123473,-4.642315835,-1.445268448,-1.240238071,-3.650912021,-9.309922782,-4.305358847,-11.07021073
-2.200642863,0.226220754,5.666551711,6.17514689,5.24402923,1.86376084,4.232383042,0.021643547,7.902293805,13.59933484,-3.933709724,-2.191031022,-2.73426655,-2.433018135,-1.490117368,-5.728786328,-11.28954548,-6.813336281,-12.60792584
-0.932759736,3.155638196,5.458316494,12.19717446,7.063262083,0.937626795,6.632718767,2.478312802,10.77233851,17.26794753,0.717055513,0.727369065,-0.100364833,-2.571923895,-1.579959618,-5.454238735,-10.71326946,-6.634102524,-10.93964411
0.860615494,7.88360005,5.613708347,23.20146057,8.174928828,-0.028656872,7.75602879,4.191011032,12.24829493,19.22421291,3.842447405,2.538326555,2.125003036,-2.187406643,-2.451662897,-3.854008462,-8.291306751,-4.603397705,-6.923327452
2.128211803,11.17987586,5.508677332,33.95036704,7.584352539,-0.750923991,7.303524237,3.936340666,12.0632147,18.03195036,3.924110274,1.543996413,2.677437231,-1.980154207,-4.504286653,-2.674409508,-5.740481119,-2.560918833,-2.529315161
2.131999474,10.77204261,4.374667874,37.85844615,5.12630585,-1.146247278,5.353675671,1.27849392,10.31855316,13.66872706,0.726717522,-2.377694545,0.85360556,-2.488657374,-7.346406322,-3.106626566,-4.57445496,-2.056118473,0.406022716
0.95392097,6.91035991,1.928586682,31.26866347,1.7695658,-1.284785109,2.473849129,-2.957393202,7.271649083,7.872776784,-4.578785628,-7.445203763,-2.916901648,-3.655691275,-10.01230152,-4.973972981,-5.108980039,-3.312280738,1.124069867
-0.615732169,2.064343298,-1.301333635,15.8307774,-0.886974296,-1.258582528,-0.308179576,-7.000978118,3.403084551,3.319691747,-9.9878125,-11.00922364,-7.067580958,-4.848771924,-11.49654469,-6.968883385,-6.418104526,-5.203015477,0.040903474
-1.711169881,-0.983619272,-4.225766293,-2.309551401,-1.617919374,-1.087859009,-1.814678045,-9.093304605,-0.359576899,2.007560376,-13.6144758,-11.26137356,-9.601895324,-5.333841072,-11.29797424,-7.707070735,-7.2016261,-6.201030039,-1.864632545
-2.033922034,-1.139635024,-5.859608995,-15.81740697,-0.354122876,-0.727389181,-1.244394941,-8.456260044,-2.670070616,3.927835723,-14.511957,-8.36828719,-9.171924372,-4.839173843,-9.659252763,-6.754881672,-6.816009208,-5.523932327,-3.775531486
-2.000492867,0.438410815,-5.926246352,-19.97941155,1.831565633,-0.142265026,1.375620227,-5.628084327,-2.312586298,7.035656974,-12.96075617,-4.208805362,-5.879988252,-3.769813195,-7.362493224,-4.860896155,-5.658174685,-3.611412524,-5.353492842
-2.305722086,1.552376108,-4.970288664,-14.94479768,3.514446316,0.627020883,5.137102736,-1.975450525,0.959749394,8.653650331,-10.14131468,-0.967498001,-1.271221906,-2.906980495,-5.217611259,-3.290074834,-4.686974228,-1.656896052,-6.580646007
-3.287148138,0.867029792,-3.915756007,-5.283204705,3.883947243,1.465470215,8.697042717,1.226311583,5.949738897,7.36583057,-7.421194383,0.30896677,2.518615074,-2.830159226,-3.590355869,-2.854035511,-4.581766585,-0.664878618,-7.4541105
-4.61702409,-1.063397128,-3.411677314,2.812572367,3.178889659,2.240837248,10.98598139,3.484090354,10.45511633,4.025557678,-5.639989844,0.136397198,3.949703935,-3.50764975,-2.299664998,-3.404044364,-5.267150692,-0.802314021,-7.883279906
-5.554602582,-2.407871166,-3.445218034,5.094777749,2.321408011,2.862241499,11.73887133,5.111338482,12.52521638,1.104721345,-4.735756144,-0.180779182,2.870962706,-4.354637357,-0.94943621,-4.11278656,-6.12896161,-1.470483985,-7.841269945
-5.524682415,-1.69401163,-3.480729851,1.552461857,2.09610912,3.292715327,11.50798802,6.666121715,11.72972952,0.838454757,-3.882813935,0.248679047,0.453551288,-4.686376608,0.576192045,-4.223917589,-6.615346513,-1.897578758,-7.530228332
-4.54203231,0.944339786,-2.981122485,-3.954433827,2.532063657,3.514284853,11.16196303,8.295001706,9.48039059,3.540848133,-2.077641093,1.288432027,-1.640290612,-4.201426484,1.869943529,-3.628029692,-6.628868984,-1.690123044,-7.312768352
-3.162714313,3.908016879,-1.891275085,-6.522700948,2.930925444,3.485998655,11.22531382,9.492556853,8.063050154,7.356150214,1.113812849,2.153662857,-2.283823398,-3.139325875,2.241923462,-2.84562801,-6.392937668,-0.94078256,-7.420551518
-2.048981447,5.457136861,-0.710673838,-3.677756695,2.452825387,3.140196591,11.51790234,9.43615988,9.002166056,9.63070123,5.06203675,2.302548022,-1.459481803,-2.037040453,1.282477935,-2.518332506,-6.016032823,0.050314783,-7.705015527
-1.529358509,5.059321998,-0.105241219,2.879733716,0.762668192,2.430295948,11.33639376,7.625532197,11.93560572,8.866526141,8.182127068,1.969488575,-0.075023557,-1.315943153,-0.701971929,-2.876087861,-5.258077815,1.073951036,-7.690849207
-1.486411918,3.670133421,-0.358440745,8.541919703,-1.743669027,1.401134571,10.03395197,4.356923905,14.84773079,5.791550942,8.698206295,1.877773319,0.772752528,-1.024355454,-2.762652622,-3.593245349,-3.772423288,2.053782032,-6.930645435
-1.589028232,2.81764038,-1.082240606,9.238555137,-4.234180235,0.230278545,7.573997129,0.702005097,15.5105859,2.774796149,5.70842308,2.46331973,0.552431026,-0.893819713,-3.882898768,-4.080912829,-1.594340682,2.892131942,-5.383618066
-1.601036579,3.352372145,-1.418672411,4.548304495,-5.958022684,-0.800722416,4.655855521,-1.995446501,13.08013028,2.075890461,-0.076589095,3.38900805,-0.41573281,-0.606617263,-3.636930908,-3.929465961,0.633823058,3.391148345,-3.506301236
-1.485668318,4.910972348,-0.606824858,-1.902420057,-6.582834706,-1.408939315,2.315283914,-2.794881792,8.689416725,4.265496594,-6.449642268,3.837279088,-1.272480898,-0.036459272,-2.432272371,-3.168125568,1.991635923,3.399364594,-1.979253941
-1.264826856,6.436718648,1.475023043,-5.140238736,-6.176489482,-1.445758627,1.272537339,-1.62000004,4.647850326,7.953643061,-10.72533486,3.320915748,-1.261878618,0.70085976,-1.156179557,-2.218748783,1.934353031,3.031341497,-1.288354595
-0.839002256,7.176088381,4.171953495,-2.624372216,-4.974874586,-0.995483868,1.474974401,0.729487928,2.885593966,10.91792724,-11.1271963,2.240532234,-0.251726837,1.36550153,-0.516323029,-1.655398808,0.709956102,2.667779893,-1.477584661
0.003666671,7.234863776,6.425262776,3.83321115,-3.204836249,-0.370640963,2.142950983,2.995393705,3.781059281,11.68112298,-7.728071592,1.616927979,1.192445854,1.739655842,-0.597571173,-1.947645057,-0.843908967,2.640799798,-2.223754445
1.37002149,7.267173193,7.415848584,9.547260229,-1.093510193,0.018794659,2.281277279,4.077922743,6.134391116,10.34838817,-2.372951779,2.170080363,2.185781128,1.693697314,-0.959006938,-3.275731763,-1.966344785,2.861397513,-3.117838014
3.046593673,7.688853239,7.057554614,10.69210265,1.038152119,-0.123694516,1.309976326,3.546375718,8.155300426,8.202528629,2.356462685,3.543829067,2.076289509,1.18355015,-1.13794622,-5.41675185,-2.531897955,2.783682148,-3.906870699
4.521198851,8.204790572,6.022228111,7.309485108,2.791666729,-0.795204894,-0.592294874,1.80851449,8.643730835,6.559126968,4.48821961,4.416066144,0.817068464,0.259514962,-1.098088644,-7.720589262,-3.023127095,1.838385913,-4.543990227
5.268411823,8.09332064,5.289491793,3.165392543,3.880355553,-1.64634345,-2.623412658,-0.125080013,7.548555992,5.884280967,3.525926058,3.511566621,-1.040786668,-0.881165977,-1.2313039,-9.262949188,-3.961324871,0.015193103,-5.091604342
5.079585806,6.957718067,5.522781078,2.576899113,4.34201286,-2.12635974,-3.838015609,-1.148992835,5.686705229,5.822392932,0.417331539,0.750556137,-2.67755453,-1.866825481,-1.925267388,-9.231591028,-5.323393078,-1.939450671,-5.626949173
4.164721822,5.219483776,6.675016912,6.812062106,4.549665734,-1.766994988,-3.637235851,-0.578678164,4.04163733,5.936097403,-3.193039303,-2.411897286,-3.416989,-2.247922236,-3.09099673,-7.42099691,-6.481065319,-2.969545839,-6.23038389
2.946561962,3.873181194,8.061681382,13.02437,4.945866965,-0.459335727,-1.980678718,1.586382883,3.23937527,6.366324308,-5.854961859,-3.806212777,-2.978183228,-1.722404501,-4.080355284,-4.521752177,-6.723751394,-2.503182536,-6.997234647
1.732917466,3.701826322,8.825262366,16.5895783,5.675893789,1.437057368,0.730843648,4.762229611,3.476919137,7.760227635,-6.825698264,-1.984200785,-1.474990729,-0.354909114,-4.092165859,-1.911738826,-5.897094783,-0.943491555,-7.971246716
0.550898039,4.63884436,8.467156706,14.88575011,6.416519754,3.230873197,3.923967971,8.137190796,4.727245404,10.52533158,-6.062678096,2.75518364,0.748471451,1.389812421,-2.757513158,-0.955910144,-4.58294433,0.588407596,-9.0056669
-0.730149634,5.826886501,7.10303786,9.357601608,6.567528461,4.221657403,7.041733884,11.03607261,6.879160145,14.11006847,-3.927954541,8.474263044,3.276507626,2.862758264,-0.453651133,-2.207573001,-3.656841456,1.084981647,-9.697982623
-2.126126625,6.306850056,5.306867063,4.155811721,5.688872029,4.037206353,9.561321172,13.07137437,9.671916719,17.02651135,-0.938459783,12.73478948,5.667524732,3.565505588,1.876545432,-5.054506964,-3.613793882,0.381135522,-9.545369306
-3.387520979,5.735605569,3.692785189,2.538609849,3.861326389,2.800882591,10.94196227,14.04651043,12.58285193,17.71262312,2.285835692,13.95527631,7.419036685,3.369007309,3.238877509,-8.095252314,-4.251635213,-0.827478481,-8.288538746
-4.122779869,4.544189057,2.545097331,4.125185623,1.694726611,1.038976171,10.67672337,13.77752204,14.89886732,15.60989302,4.977823002,12.10387641,7.978609816,2.467510619,3.059656925,-10.02019282,-4.96796787,-1.677498106,-6.2014263
-4.089972368,3.468844304,1.742076097,5.370831853,-0.029322812,-0.614114995,8.511295824,12.05611484,15.99373535,11.61727919,6.284556832,8.394055469,6.894844643,1.133382266,1.34276834,-10.39448919,-5.367486876,-1.91937699,-4.054354938
-3.39252497,2.928275858,0.989711464,2.874269325,-0.823583567,-1.742794506,4.699932862,8.836596917,15.58661831,7.551300588,5.52197304,4.355199551,4.067416249,-0.498896245,-1.472276986,-9.801834093,-5.599939065,-2.080459368,-2.697598076
-2.400432327,2.803581562,0.159176123,-3.34027524,-0.745701316,-2.327143496,0.070229408,4.502612832,13.74990024,5.0056575,2.511688236,0.987085175,-0.069239128,-2.424619009,-4.736576003,-9.275469546,-6.105684188,-2.849961736,-2.521211069
-1.467894484,2.758845146,-0.53717292,-9.475172746,-0.283955489,-2.679759074,-4.2335944,-0.052394104,10.68691746,4.443665826,-2.22076247,-1.500411928,-4.595333514,-4.548302434,-7.730577366,-9.458638908,-7.002821813,-4.233985951,-3.182929498
-0.701781621,2.728170716,-0.661968671,-10.98763202,0.00175234,-3.192550017,-7.229065605,-3.697527128,6.551139719,5.137677462,-7.547943399,-3.365684602,-8.415771533,-6.466987533,-9.734628289,-10.10729473,-7.701865287,-5.268068885,-3.823967973
0.015882132,3.06019456,0.126878798,-6.502870894,-0.190386662,-4.05053307,-8.515498916,-5.59535445,1.548902966,5.897197998,-12.13458958,-4.823206988,-10.67797018,-7.496466083,-10.16415707,-10.26055458,-7.158688173,-4.616817397,-3.634850283
0.786996961,4.160604811,1.782679526,0.768171622,-0.814913574,-5.084618508,-8.376549537,-5.672881301,-3.745867071,5.954603531,-14.95335028,-5.760487209,-11.06453632,-6.991821347,-8.814139369,-8.906306279,-4.623320247,-1.619959756,-2.374361013
1.480323048,5.968056383,3.807682317,5.489872772,-1.634770704,-5.851690533,-7.520314694,-4.707075649,-8.235095408,5.341200483,-15.68342536,-5.84086523,-9.816154833,-4.766067643,-6.067394301,-5.650514992,-0.297183768,3.068054069,-0.490832776
1.763552136,7.778120649,5.463969364,4.63491812,-2.447401559,-5.895801545,-6.655726392,-3.929241246,-10.62715268,4.567035256,-14.79858775,-4.848647644,-7.529313152,-1.307358882,-2.84784539,-0.971390012,4.636212773,7.784813311,1.199528356
1.380583416,8.631650291,6.124052904,0.158558541,-3.185907866,-5.035226692,-6.189514875,-4.360332773,-10.17863233,3.988472277,-13.28675274,-3.001295009,-4.910801997,2.376967237,-0.253867935,4.012496943,8.641491199,10.87858105,2.011173295
0.434552528,7.98198035,5.555754698,-2.540866091,-3.831737193,-3.500441258,-6.197207005,-6.260509496,-7.337403579,3.447359649,-12.12444317,-1.016930988,-2.644874789,5.203556563,0.932045399,8.018671589,10.64362851,11.63553246,1.721261149
-0.589293024,6.100377851,3.998352833,0.631099624,-4.242264944,-1.833134937,-6.591793144,-9.000398966,-3.724005387,2.471315,-11.78222424,0.118877052,-1.369396622,6.471344518,0.537799834,10.02778885,10.44792902,10.43400199,0.576646605
-1.113481097,3.891828052,2.022231878,8.361512229,-4.069477919,-0.599950292,-7.277356979,-11.40365202,-1.322950716,0.820486498,-12.06052022,-0.401479082,-1.617068347,6.082366795,-1.072714515,9.537909759,8.56678552,8.133154223,-0.924298566
-0.853777721,2.278369152,0.277036855,14.11457804,-2.878119398,-0.090745708,-8.137551241,-12.3470411,-1.356405894,-1.119756714,-12.38142263,-2.736832681,-3.601682727,4.46046885,-3.319999984,6.694476309,5.738785725,5.341627246,-2.263328437
0.007371449,1.642666073,-0.735887561,10.96210364,-0.419813135,-0.184164649,-8.901985296,-11.28991735,-3.588300129,-2.452926404,-12.34911029,-6.135658779,-6.917571486,2.296409997,-5.675940851,2.344899418,2.597885638,2.237940823,-3.027351846
0.997155136,1.738970386,-0.777243375,-2.435340819,3.107692486,-0.458942378,-9.077666461,-8.477410885,-6.516671874,-2.315505328,-12.14555326,-9.083966769,-10.4095317,0.301905288,-7.685472173,-2.061469526,-0.307741933,-0.974877571,-2.965204947
1.730377717,2.074374233,0.143431819,-19.48954813,7.004552095,-0.471625863,-8.094192319,-4.74889004,-8.280377918,-0.42903616,-12.38012809,-9.901622593,-12.46310674,-0.938045183,-8.836389442,-4.86383111,-2.353177938,-3.54838019,-2.06270187
2.181676327,2.399897581,1.860956311,-29.30111899,10.2980281,-0.01562091,-5.620281694,-1.075984218,-7.635463688,2.753053327,-13.40764029,-7.565431825,-11.70856213,-1.048674248,-8.549645726,-4.853181032,-2.886697221,-4.269337518,-0.62313268
2.642365318,2.917032704,4.157767782,-24.03504365,12.16783918,0.802342304,-1.833447949,1.926346869,-4.401021923,6.386608719,-14.61896927,-2.324915347,-7.792043162,0.05010771,-6.443721296,-1.914479152,-1.600031437,-2.247570202,0.772524766
3.417722425,4.083234358,6.820224869,-4.773412684,12.34287909,1.697323209,2.575874504,4.26164339,0.749939705,9.777728745,-14.38248746,4.299236557,-1.717643784,2.069438662,-2.70924013,2.786102955,1.072174284,2.206971094,1.518255972
4.52725571,6.219563172,9.629488409,18.60999258,11.23209192,2.43105691,6.69849852,6.436601054,6.800525977,12.71277195,-10.93324219,10.22222774,4.534544176,4.382276396,1.77317457,7.312646235,3.961344377,7.447216677,1.353637539
5.652079018,9.227278966,12.31783245,33.73752085,9.688495174,2.950933564,9.80962131,9.013226088,12.75131106,15.36479041,-3.763600022,13.8457344,8.959257479,6.234941579,5.794818391,9.967315719,5.737295324,11.3807903,0.58735741
6.359621489,12.5771327,14.55658751,33.80337434,8.52523399,3.350922193,11.61731816,12.08263055,17.68591122,17.90522973,5.479782924,14.82673532,10.5034438,7.084444927,8.479987383,10.20896121,5.71214265,12.81513235,-0.051226912
6.414915194,15.52316418,16.03354057,21.68250053,8.072561106,3.71543351,12.22567054,15.01277307,20.75463651,20.16529818,13.43270166,14.08733605,9.492941141,6.873805759,9.759076358,8.893265003,4.287170824,12.23500733,0.108946627
5.938233525,17.39535233,16.6140926,7.218221559,8.059360427,4.003731699,11.90583015,16.70250031,21.34966464,21.62938198,16.7531497,13.08041165,7.286254483,6.053214741,10.26498705,7.66728969,2.679281652,11.37860606,1.198878346
5.312322368,17.8630138,16.49327194,-0.139536559,7.899373436,4.08985483,10.89338456,16.25455538,19.46018931,21.76833119,14.13053017,12.82258483,5.4262417,5.308108845,10.72534004,7.914775182,2.107412355,11.91141126,2.699977208
4.940878348,17.11608007,16.20299069,2.183674519,7.181318217,3.924202023,9.358009278,13.64802403,15.87235827,20.44824303,7.17735591,13.34317387,4.840793225,5.157942216,11.35935001,9.946782718,3.035108414,14.21546563,3.816490301
5.048181127,15.8963935,16.39776704,8.972266693,6.003958649,3.656044496,7.499427357,9.904459703,11.87443582,18.08113445,-0.52699944,13.87220694,5.531625654,5.682431681,11.79860292,12.94780726,5.007690548,17.21902656,4.060626502
5.636651365,15.28080901,17.49034133,12.21144877,4.897735086,3.569769939,5.59486923,6.530620454,8.503427087,15.36638901,-5.706120462,13.54878403,6.807733397,6.539061222,11.59352715,15.65781035,7.143094431,19.35872202,3.603489575
6.57450328,16.19890965,19.35071242,7.841058154,4.384032427,3.845426962,3.879527597,4.535927608,5.812669951,12.77763813,-7.475211624,12.07991368,7.775958642,7.228628787,10.82769496,17.2796163,8.835130428,19.87325397,3.127401027
7.702820505,18.87974309,21.29763476,-1.037605914,4.517047877,4.330099351,2.331376611,3.696267905,2.735616601,10.16300828,-7.836049954,9.870105319,7.734791177,7.4048293,10.23037834,17.98801781,10.11026094,19.39539399,3.313189823
8.884194728,22.59462334,22.45270985,-6.839544272,4.791850671,4.542211153,0.572836538,2.643163338,-2.269638229,6.786289932,-10.26633052,7.57903236,6.315930751,7.025239999,10.60539933,18.73338582,11.41325371,19.40537911,4.378052793
10.00325181,25.97468333,22.27771496,-3.701635094,4.528005422,3.970927743,-1.954456946,-0.201347446,-10.20486967,1.845866546,-17.41681274,5.497148032,3.458255789,6.285528902,12.03029075,20.52675289,13.07739208,21.02571632,6.011628308
10.97331629,27.80192765,20.95108956,7.824729378,3.44703091,2.48681347,-5.612016185,-5.468562191,-20.87214279,-4.852082371,-29.51297702,3.234046693,-0.634509678,5.437974449,13.55576491,23.71471471,14.95808083,24.12852718,7.707004184
11.76689005,27.76349217,19.30166407,21.23431177,1.969374591,0.547462268,-10.2590526,-12.31819021,-33.06065145,-12.56280895,-44.49486828,-0.057646164,-5.522736183,4.646319017,13.76802491,27.7063444,16.51702289,27.42426579,9.158361855
12.42707726,26.59194671,18.29625913,29.06565433,0.945003879,-1.007208235,-15.2829172,-18.98049707,-45.44649977,-19.93511806,-59.66967925,-5.109901136,-10.64759978,3.953680305,11.84346155,31.27697203,17.23798581,29.39491302,10.37659032
13.01424827,25.42951066,18.39476271,28.21817795,0.981908712,-1.478919194,-19.98183364,-24.00723443,-57.53858198,-25.8707309,-73.63042824,-12.03610164,-15.59786619,3.327480037,8.253134579,33.20435026,16.99432794,29.30016934,11.46274946
13.51205537,24.87471373,19.21217969,21.34665754,1.896547423,-0.799797684,-24.02261086,-27.29892296,-69.96788046,-30.33681911,-87.10918743,-20.22045161,-20.39479239,2.699986005,4.49986465,32.8325687,16.07470515,27.51001689,12.30685169
13.78656349,24.48413524,19.75022141,13.57457591,2.767728312,0.383385392,-27.60622764,-30.09535701,-83.89757703,-34.48210491,-102.2561215,-28.61806303,-25.5227368,1.97079365,2.042422195,30.2740691,14.89490362,25.02160977,12.54642453
13.67419109,23.19234879,19.08266438,7.763887505,2.625326614,1.128402588,-31.18595991,-33.88411659,-99.95892927,-39.82611259,-120.9071597,-36.21799982,-31.54695252,1.01090843,1.24288308,26.2273773,13.68145221,22.66427529,11.86587817
13.16174779,20.37202643,17.05491928,2.671632143,1.281599077,0.849867949,-34.94407174,-39.03220785,-117.4379044,-46.97250559,-142.9852973,-42.37305893,-38.49844029,-0.279147687,1.178538196,21.60953373,12.39515154,20.66210461,10.37716893
12.51031522,16.67641488,14.52140878,-4.424344581,-0.359589068,-0.255711727,-38.45293656,-44.21169664,-134.2502524,-54.75429374,-165.9846229,-46.85513373,-45.49019934,-1.8692951,0.464185281,17.2466896,10.9184778,18.82858003,8.710559857
12.17935736,13.90288328,12.93344619,-13.25107884,-0.829964819,-1.327454597,-40.83067095,-47.13177174,-147.720805,-60.55127783,-185.7811365,-49.69825345,-50.96327876,-3.542263942,-1.591461231,13.74383609,9.29817049,17.09800935,7.674257447
12.55114932,13.86771886,13.51598664,-18.76803343,0.857449132,-1.429935962,-41.32140127,-46.10691687,-155.7032357,-61.75357952,-198.3113098,-50.99394131,-53.51876084,-4.957210661,-4.429549369,11.48603074,7.813053656,15.84586569,7.718317988
13.63245336,17.10445177,16.54536232,-14.44579222,4.392079768,-0.201207025,-39.87943205,-41.33179873,-157.4318121,-57.48283525,-201.3093213,-50.77145987,-52.79411474,-5.817998066,-6.699180237,10.6427461,6.818896772,15.69474703,8.629093278
14.96716121,22.4043296,21.17582822,1.658107331,8.204348884,1.89905931,-37.30059889,-34.91505449,-153.7164821,-49.37806601,-195.3363995,-49.00026352,-49.71875185,-6.026040813,-7.295003355,11.10561689,6.522231285,16.99144825,9.710202782
15.86339337,27.59934528,25.90615715,23.29847641,10.37899737,3.907883933,-34.76810126,-29.62150438,-146.4807127,-40.80877795,-183.6372214,-45.67968883,-45.89865146,-5.689681501,-6.088131576,12.42424327,6.876625937,19.43619188,10.31286343
15.80822544,31.01687429,29.37188007,38.75262393,9.824570876,5.000766404,-33.12275607,-27.20832594,-137.9517471,-34.95876873,-170.8060674,-40.95909102,-42.54962438,-4.974326209,-3.784732938,13.88548855,7.664397369,22.20710399,10.29524726
14.79112976,32.49493517,30.9641054,38.63341462,6.893160865,4.991631274,-32.38518999,-27.51086164,-129.9066782,-33.05278714,-160.7665249,-35.23350544,-39.78546299,-3.921481381,-1.138862931,14.81470981,8.66428895,24.49358818,10.05604749
13.30886529,33.1900773,30.92453737,23.03244642,3.049786824,4.351267513,-31.87479643,-28.85093658,-123.2646668,-33.92769653,-155.0005072,-29.16020095,-36.81994393,-2.409467644,1.697542338,14.98781361,9.758318993,26.00815152,10.14186893
12.04748473,34.37084792,29.93284799,2.13284681,-0.123222628,3.773804161,-30.82226964,-29.36938031,-118.097597,-35.18753635,-152.0112681,-23.55196521,-32.91714204,-0.318619398,5.074011194,14.87617033,10.91864981,27.06968528,10.76974726
11.46418453,36.19476383,28.53103599,-10.73201711,-1.853654672,3.648572679,-29.00214677,-28.26478247,-113.927033,-35.02976856,-148.451079,-19.15010887,-28.29637732,2.220910532,9.110882495,15.46723782,12.13194851,28.20553479,11.65388129
11.55333062,37.46632077,26.80210572,-8.559402265,-2.41714526,3.837074097,-26.90349128,-26.08951935,-110.0745032,-33.3677733,-141.3511207,-16.3569744,-24.19923777,4.723037692,13.08808703,17.65649443,13.35145744,29.60334594,12.2551141
11.93709519,36.5745464,24.50254966,4.584224238,-2.618775505,3.893535167,-25.31570291,-24.02710039,-105.8738487,-31.46830846,-130.0714118,-15.06095842,-21.99290735,6.52402625,15.64251708,21.54401577,14.50537481,30.85205415,12.22349339
12.18675729,32.86173556,21.50341498,17.27413933,-3.005640001,3.516605061,-24.65581286,-22.82487824,-100.7074653,-30.51254422,-116.625754,-14.66170885,-21.9948888,7.170021157,15.742174,26.13169536,15.5200145,31.17633834,11.66772384
12.13021959,27.3360383,18.16722616,19.90193913,-3.435652022,2.852473252,-24.56090535,-22.22538338,-93.99010392,-30.33384304,-104.0903197,-14.30090126,-22.98895807,6.752977527,13.65260333,29.72681951,16.31668724,29.98978071,11.05395424
11.93433341,22.15920604,15.33454097,11.9459305,-3.283877783,2.406396152,-24.06875585,-21.26159527,-85.26978403,-29.40872772,-94.22242411,-13.19247479,-22.89839717,5.935830767,11.01038466,30.88884044,16.79929773,27.35914293,10.84514987
11.92633135,19.28076561,13.87972653,1.56909835,-2.048244084,2.640955783,-22.26878183,-19.0881607,-74.49223244,-26.12239098,-86.11443485,-10.90373421,-20.17278327,5.609789699,9.801776426,29.32699277,16.88184618,24.04347469,11.177949
12.30081813,19.20897946,14.12050423,-1.873978204,0.165210702,3.588108092,-18.95722672,-15.66010397,-62.26798155,-20.25550049,-77.02140448,-7.485676063,-14.86020999,6.383570248,10.95892185,26.11195955,16.55911135,21.07500404,11.80344528
12.92413847,20.76129779,15.50104405,4.028366234,2.650797722,4.787301907,-14.82877944,-11.77185857,-49.87196713,-13.42714146,-64.82347836,-3.435643267,-8.559979884,8.225100548,13.65595195,22.99738148,15.94672427,19.16019123,12.28517
13.36876947,21.89668067,16.81210083,12.88717164,4.562998,5.603637971,-11.07079796,-8.503034492,-38.82807285,-8.061406384,-50.18822021,0.470607854,-3.31035906,10.47357899,15.87924767,21.28101054,15.20982352,18.29295446,12.26478644
13.15619081,20.99942186,16.86065217,15.47500915,5.450149644,5.684950413,-8.642182646,-6.533070215,-30.23398971,-5.647599868,-36.56941047,3.434576601,-0.271280155,12.19530997,15.86011012,21.0004917,14.40154599,17.82890444,11.61021441
12.06079403,17.77760708,15.18952128,8.32696172,5.476094172,5.211908799,-7.719372071,-5.795889899,-24.23431178,-5.653845119,-27.80253177,4.934659521,0.829296372,12.65061142,13.2952701,21.04732652,13.35738954,16.97338322,10.40699896
10.29719852,13.31514616,12.38945643,-2.562603425,5.224432299,4.754128232,-7.653154605,-5.620770629,-20.01825449,-5.947902328,-25.02999338,4.986506874,1.169256525,11.60704848,9.471677564,20.11483174,11.7970901,15.3731134,8.883348669
8.481533332,9.402923215,9.790741986,-6.400066201,5.293001878,4.839409012,-7.425211277,-5.160830291,-16.37798563,-4.39041469,-25.40891535,4.225963843,1.767116695,9.370631437,6.280580665,17.76276313,9.622323665,13.42788706,7.361027953
7.377579053,7.635505224,8.712972211,3.100305265,5.988051911,5.54959046,-6.281438511,-3.803404631,-12.45433395,-0.360582111,-23.82621121,3.69038805,2.775664794,6.587351307,4.933195974,14.77896047,7.187044822,12.10044731,6.229397512
7.54908237,8.735355222,9.731378036,21.63482413,7.279516061,6.429063547,-4.148918094,-1.389752658,-8.147935718,4.926404334,-16.53072213,4.314986196,3.630887982,3.963204683,5.326760674,12.55034517,5.262290333,12.31131318,5.871429729
9.088687699,12.31711046,12.39943773,36.85921036,8.946499234,6.764042404,-1.624926008,1.750417685,-3.927402897,9.457208825,-3.999173748,6.372733166,3.780418249,2.02783239,6.404882466,11.92712809,4.616700101,14.28093603,6.50951511
11.5575216,17.08059904,15.5652073,37.82413718,10.72821856,6.036807623,0.396594705,4.891505391,-0.236248698,11.90485227,9.195994529,9.209046904,3.255177151,0.991948461,7.062734175,12.47491776,5.459613041,17.24758271,8.04402454
14.16191404,21.32234599,18.04007137,23.6953494,12.36596531,4.256971674,1.210636653,7.131636852,2.990199235,12.38431997,17.52484489,11.51415451,2.577697084,0.706633013,6.82182819,12.7263543,7.172043972,19.78165338,10.013399
16.06958987,23.60536682,19.1789039,4.566431997,13.57256845,1.975392791,0.642813211,7.758388852,6.294960623,11.99519326,18.36225933,12.05497047,2.17482938,0.740390276,5.845144112,11.2749979,8.5954999,20.54419922,11.74246528
16.69948426,23.34543727,19.03501379,-6.398736206,14.04221877,0.002338137,-0.8810114,6.666903534,10.19310111,11.69317393,13.73766469,10.45718639,1.944292569,0.590642681,4.500217515,7.894617113,8.742489721,19.0340049,12.61403763
15.85246817,21.01893822,18.07146455,-3.134670746,13.55486659,-0.976510812,-2.515908077,4.58296545,14.63076094,11.52724179,8.759093074,7.539015537,1.464446284,-0.015834334,3.016836534,3.831221776,7.447408563,15.84824298,12.3136578
13.66345224,17.8174416,16.7073607,9.076077558,12.11153195,-0.667092049,-3.320159412,2.846166329,18.88579768,10.86766677,8.017323064,4.950301716,0.682123467,-0.880500408,1.562698148,1.029988663,5.48295656,12.28257253,10.92757495
10.4662639,14.8953595,15.04741881,18.56551435,9.984020828,0.793073097,-2.591154524,2.758029349,22.02694268,9.337002261,12.71143934,4.312463284,0.38033936,-1.336100687,0.545230207,0.846442302,4.043700211,9.527901586,8.878999958
6.687461703,12.67720972,12.95619524,17.14591066,7.624687873,2.984872002,-0.106018878,4.846550283,23.60044684,7.546448701,20.5087821,6.379880835,1.84337023,-0.577402933,0.666323983,3.151463202,3.95976801,7.98619359,6.76679328
2.809757146,10.71446254,10.35452761,6.646536846,5.494156387,5.423148555,3.811589635,8.545911494,24.04283859,6.937646034,27.9253285,10.71994858,5.846264586,1.818277846,2.49085866,6.422304175,5.189113533,7.136475277,5.170663762
-0.655424503,8.207349741,7.455339937,-3.146499779,3.919627549,7.720586009,8.428746201,12.5582044,24.54140796,8.825615387,33.11504927,16.05775545,11.78214977,5.50052463,5.818314668,8.692535108,6.907126502,5.998539571,4.450623544
-3.271030296,4.785727802,4.731035577,-3.149959722,3.049985951,9.649949962,12.89827183,15.68223836,26.46533546,13.42429983,36.8657609,21.00850005,17.75756479,9.383962765,9.454198936,8.669866668,8.063138231,3.842724003,4.574225544
-4.850725779,0.911483243,2.64000908,7.187692745,2.88343472,11.12244343,16.58376461,17.53173103,30.73585084,19.63535063,41.26076904,24.71944654,21.7461511,12.15949885,11.73585927,6.311501315,7.965736085,0.662295645,5.06240135
-5.584193664,-2.438125396,1.340508265,19.43625791,3.302092337,12.13091669,19.25662291,18.63154328,37.43971803,25.73268164,47.41184429,27.07510645,22.98311668,12.99246156,11.546614,2.612530716,6.516108796,-2.864399749,5.165832962
-5.959471387,-4.533994186,0.628457375,23.34950365,4.088557709,12.70122869,21.06942883,19.85107213,45.75355197,30.3646226,54.29126835,28.44931439,22.49190336,11.95890051,9.085364766,-1.095807985,4.041019447,-5.822666848,4.277136775
-6.457783648,-5.42838564,0.152232468,15.53545738,4.963437797,12.87333498,22.34225513,21.64350461,54.09457949,33.11765617,59.57446253,29.26268953,22.26188289,9.920615141,5.772787711,-3.82111943,0.980201111,-7.571639139,2.380648698
-7.196163223,-5.767233016,-0.267020092,2.407152994,5.685861651,12.71172682,23.31396324,23.69462693,60.45387773,34.33664728,61.60941766,29.65470975,23.66888319,7.917119614,3.309992708,-5.220828209,-2.286031681,-7.999236139,0.212239479
-7.791178081,-6.042788955,-0.467951502,-4.93045101,6.184767389,12.32747727,24.02166417,25.23162513,62.95950918,34.52945767,60.72006771,29.42927243,26.37010054,6.492645024,2.555517075,-5.548653042,-5.403112257,-7.446977316,-1.083152775
-7.596329979,-5.99655334,-0.07664819,0.437576605,6.614061231,11.88396032,24.36458881,25.69280904,60.64293515,33.94213242,58.74929497,28.2362933,28.55972034,5.424090163,3.02561545,-5.428565438,-7.966738778,-6.459311111,-0.663631632
-6.187423047,-4.803955049,1.15546902,15.76604542,7.245168898,11.56279214,24.26442183,25.17245283,54.12033758,32.60423892,57.35796028,25.84616184,28.3955828,4.026308842,3.344210133,-5.603336838,-9.588408451,-5.55969408,1.391088978
-3.748867821,-1.978387674,3.052418396,30.73740043,8.236479912,11.49105892,23.76783759,24.26968052,45.70111545,30.64374841,56.66900428,22.37844377,25.46891285,1.791765969,2.264146484,-6.673259641,-10.09475554,-5.135216502,4.036428703
-1.047995411,1.789585826,4.982905713,35.09575304,9.448206632,11.66539551,23.00275559,23.49926564,38.59879646,28.44482064,55.46047687,18.39318051,21.15687589,-1.118281646,-0.496359406,-8.818667831,-9.665807041,-5.37865185,5.900551555
1.021589819,4.717020229,6.144230622,25.69775617,10.47343661,11.92690479,22.04135174,22.80877978,35.46489804,26.45151019,52.66025149,14.78933132,17.59934114,-3.896497128,-4.147721308,-11.61214771,-8.736128008,-6.224810449,6.188447715
2.009974593,5.07604278,5.994024419,7.891526137,10.90092078,12.02073703,20.81633053,21.65461558,37.02721653,24.83396075,48.6995796,12.49902909,16.13789908,-5.606263207,-7.417751555,-14.10740406,-7.701392591,-7.31295246,5.191209254
2.171488115,2.590861787,4.566963995,-8.998131372,10.62733447,11.72070286,19.19577786,19.59381722,41.70267389,23.3959571,45.41077572,12.06171892,16.4545793,-5.808833494,-9.327421336,-15.27721906,-6.676719918,-8.075548702,4.003556011
2.220748494,-1.079687113,2.489668163,-17.90454888,9.968990194,10.94937241,17.17509081,16.87507466,46.49787985,21.84995202,44.48505432,13.28547556,17.04201404,-4.843572762,-9.617678811,-14.60035097,-5.528919955,-7.990415184,3.657128834
2.7786993,-3.311236968,0.691856478,-17.30313464,9.462305656,9.819521556,15.01842981,14.47510671,48.66114693,20.18325394,45.84980302,15.24324677,16.5472254,-3.568056152,-8.65069132,-12.40438356,-4.155234569,-6.877775937,4.346012638
3.9406897,-2.318524505,-0.019143584,-10.0792431,9.489049884,8.573336367,13.19545063,13.47300788,47.04690649,18.71315012,47.47611608,16.70824102,14.86044207,-2.761306895,-7.009958445,-9.677846896,-2.735641756,-5.030337351,5.356488349
5.286635625,1.555144659,0.702404957,-0.198564812,10.01288594,7.465589522,12.11668614,14.21922476,42.40020719,17.7344558,46.92708704,16.84335395,13.09739671,-2.626021837,-5.155381738,-7.440329317,-1.688725733,-3.050014941,5.742721035
6.282981567,6.081070452,2.638922685,9.573384423,10.63312958,6.670692877,11.85011142,15.96437199,36.57475176,17.11245286,43.43130884,15.72417404,12.57812843,-2.731046431,-3.320234529,-6.112811998,-1.332605622,-1.483210729,5.171568344
6.708498885,8.760511331,5.157977566,17.62952122,10.90724965,6.263321171,12.04789933,17.28242714,31.41748294,16.30292252,38.7381567,14.3128448,13.71946296,-2.399486346,-1.58597913,-5.351530144,-1.551530721,-0.51465104,4.213066973
6.740118258,8.573498322,7.503793131,22.48449903,10.67522856,6.254728781,12.17110355,17.01273989,28.12450263,14.90792252,35.96029311,13.84606944,15.76648389,-1.229726637,0.030795334,-4.452096959,-1.806411811,0.058396516,3.818289315
6.654955703,6.531926442,9.08056471,22.7177386,10.12260437,6.622457453,11.87032233,15.04287574,27.297284,13.31358764,37.25485085,15.02902112,17.52572608,0.633042359,1.558870392,-2.979405762,-1.540450785,0.573987402,4.425568101
6.458609851,4.684275456,9.613833466,18.22718098,9.544721947,7.291181088,11.24394326,12.37403979,29.25889728,12.74866782,42.16357555,17.60039611,18.40719629,2.645092849,3.07215403,-1.111394613,-0.660051989,1.199537513,5.477449472
5.821199603,4.454696276,9.159022133,11.20042396,9.031184679,8.089247158,10.77048969,10.44595963,34.03811518,14.51427374,47.91710712,20.58054044,18.85824543,4.284256531,4.641430897,0.555959778,0.341718812,1.823386612,5.807929733
4.419503424,5.674306148,8.003066331,5.182845109,8.356444978,8.754026274,10.95131618,10.22284503,40.91175833,18.86582187,51.4408173,23.00049323,19.83956868,5.409592541,6.25925739,1.533839723,0.775630629,2.207586309,4.625311285
2.39069096,7.007430465,6.536934533,2.594098642,7.181463938,9.034495906,11.92279725,11.66516217,48.02791351,24.44025261,51.47142861,24.53589119,21.83599797,6.301055888,7.825171181,1.823785052,0.368945719,2.234309724,2.284018442
0.455696124,7.276020067,5.155415188,2.940288113,5.398367861,8.850933324,13.32770549,13.88014786,52.77062203,28.80321657,49.1724355,25.55207436,24.28442489,7.374400389,9.22425078,1.842894317,-0.420544694,2.010837331,0.169863698
-0.478941107,6.471381172,4.191007058,3.658459065,3.321181283,8.393332601,14.54496623,15.75231659,52.96807624,29.84858867,46.89378227,26.55863244,25.92331183,8.802733157,10.41117836,1.999364412,-0.697015007,1.74816997,-0.270907637
0.020719243,5.600045667,3.853788677,3.062432601,1.551983423,8.051179075,15.10926455,16.58025457,48.24519007,27.09574848,46.19338715,27.57538606,25.77071588,10.32520759,11.3749491,2.331971397,0.165217795,1.547952345,1.376849282
1.524399325,5.588418493,4.159203563,2.573291453,0.622435115,8.178855284,15.01182913,16.34451266,40.50520896,21.97478639,46.73422455,27.99625705,23.90978092,11.36842663,11.98128839,2.541416319,1.956973779,1.312307447,4.140307176
2.968374665,6.303162,4.872797228,5.726085032,0.691006124,8.836028845,14.66650344,15.55364103,33.04354595,16.93709311,46.84799543,27.1085722,21.43650387,11.37843034,11.86439528,2.354354948,3.68694829,0.859079691,6.321047916
3.37554467,6.605158426,5.538959683,14.38091677,1.514681705,9.690311191,14.57613337,14.87744876,28.78345919,14.06605785,45.15642503,24.8305711,19.62921023,10.12897792,10.56687475,1.839349154,4.24183646,0.114207861,6.665220641
2.524314064,5.390516933,5.639897964,25.52042153,2.67379429,10.17710782,14.95026266,14.81289812,28.78370805,14.12454985,41.82918437,21.98565039,19.02429465,7.815522757,7.923063917,1.342725304,3.155803439,-0.825747513,5.153961632
1.048106922,2.659215454,4.84509086,32.05581598,3.828372422,9.834516274,15.54717113,15.49811759,31.95810154,16.51189193,38.45210636,19.78367567,19.11843492,4.909933012,4.400553622,1.089080321,0.903304556,-1.832044676,2.860612935
-0.104440809,-0.387321881,3.216799641,27.77297658,4.798991936,8.59853781,15.83652013,16.66892124,36.04037834,19.8766018,36.68341372,18.86635274,18.87177611,1.906996853,1.037654872,0.840526538,-1.488049768,-2.93555638,1.069332867
-0.407752412,-2.34807853,1.218586819,12.66632969,5.4676639,6.859825691,15.34712294,17.73823853,38.9676248,22.77365878,36.86103567,18.71581443,17.54590685,-0.864778143,-1.119333168,-0.010431542,-3.174811612,-4.34637604,0.39218058
-0.104697551,-2.852020181,-0.525838955,-5.99245699,5.682461743,5.242478268,13.95060005,18.01270725,39.71250202,23.99372146,37.70602731,18.00608942,15.20175579,-3.276539991,-1.739187316,-1.931147827,-4.008336363,-6.234328473,0.53892089
0.096798707,-2.913158157,-1.60577985,-18.2910451,5.335230016,4.253415479,11.90507964,17.02404961,38.20624099,22.67977666,37.32403914,15.71881337,12.53273781,-5.309542853,-1.520601376,-4.751950798,-4.465799401,-8.45962499,0.801955261
-0.30855558,-4.063569571,-2.091535287,-18.67832706,4.57189162,4.030556659,9.667661987,14.82911193,34.76964217,18.54109011,34.65862231,12.15145613,10.27312437,-6.948226283,-1.763597585,-7.653638884,-5.132699303,-10.541469,0.743521265
-1.168553344,-6.993691703,-2.496836011,-9.785590073,3.894898828,4.335247766,7.633139581,12.05102319,29.73968743,12.188315,30.24475147,8.925776118,8.715445201,-8.141634623,-3.429785403,-9.712964104,-6.200531755,-11.9668682,0.484914419
-1.811447917,-10.87378703,-3.427610763,0.033528462,3.94450434,4.757912853,5.971359557,9.540429789,23.58734133,5.203842799,25.73902407,7.846770984,7.687839321,-8.840113193,-6.376072714,-10.57867314,-7.36760778,-12.61524773,0.422860574
-1.642953736,-13.94547348,-5.132716782,3.39442888,5.016957785,4.970326013,4.633272803,7.814027636,17.21977707,-0.441145503,22.69380024,9.41891248,6.900393924,-9.047247778,-9.377417713,-10.6989908,-8.150218031,-12.91012582,0.724423888
-0.67784603,-14.87213265,-7.262583592,-0.713808119,6.670082116,4.857244678,3.47439686,6.664071877,11.94990967,-3.473926233,21.58059266,12.21512303,6.278670712,-8.821954355,-10.96750176,-10.87932193,-8.275094496,-13.4943989,1.113112881
0.454549584,-13.69228945,-9.018407689,-7.109842588,7.798640961,4.47835125,2.392697136,5.286725019,8.977275087,-4.15225565,21.76593008,13.73406374,5.991031033,-8.218308555,-10.47258561,-11.52488907,-7.811092256,-14.63740496,1.142245542
1.032557089,-11.59506114,-9.61258766,-9.640333433,7.250442301,3.943615421,1.408441522,2.91768053,8.764638417,-4.058113521,22.31635057,12.24149372,6.211722228,-7.213244177,-8.436796341,-12.21640723,-6.981849553,-15.86621514,0.674159506
0.836006673,-9.788831295,-8.744126774,-6.650404489,4.616496858,3.32778035,0.672748843,-0.456317884,10.85363062,-4.821105272,22.86531631,8.245503507,6.907332164,-5.693354132,-6.110566662,-12.00707844,-5.898627434,-16.1910286,0.088409383
0.293492364,-8.520923314,-6.778678216,-1.959590829,0.624332199,2.682766214,0.423014591,-3.867859994,14.27041485,-6.700298482,23.81311811,4.408632605,7.872748211,-3.534532881,-4.430699836,-10.22298629,-4.494340612,-14.82517437,-0.002813088
0.051507128,-7.127500269,-4.523979797,-0.794703954,-3.204767037,2.101921487,0.899715843,-5.862816512,18.12059294,-8.240802559,25.76012978,3.809217715,8.96335969,-0.738730472,-3.33819446,-7.111351729,-2.710805828,-11.86230517,0.706753976
0.337676835,-5.018494482,-2.763074573,-4.665668564,-5.449935116,1.742380858,2.23503477,-5.414673546,21.82640086,-7.444890718,28.73405225,7.725967671,10.26101138,2.459788256,-1.999491935,-3.790984272,-0.726673825,-8.352347012,1.905688089
0.678134933,-2.61932824,-1.856757267,-9.977145198,-5.632335378,1.758018725,4.346196623,-2.611055815,24.88378891,-3.607106318,31.92087285,14.56247763,11.97556217,5.602285519,0.263525202,-1.528449213,1.031909347,-5.665630858,2.867279235
0.237039636,-1.308340936,-1.654843176,-11.58431077,-4.422320578,2.187385465,6.897385141,1.387996469,26.58568164,1.736925871,34.15665231,20.76736486,14.15289095,8.149191747,3.141289822,-0.910732705,2.144946195,-4.602180314,3.003183828
-1.480997357,-2.305406348,-1.727979395,-7.851139508,-3.091314712,2.893060805,9.386870378,5.079987701,26.25509908,5.701591218,34.78481243,23.16719217,16.46888262,9.697180731,5.353226658,-1.551800509,2.502698488,-4.920437604,2.302484411
-4.142246296,-5.463838046,-1.71931675,-2.342010598,-2.636040573,3.61467247,11.34878705,7.491542497,23.98274465,6.227883584,34.17217798,21.07651833,18.33308528,10.15318362,5.571678052,-2.513567771,2.384981933,-5.634713385,1.298152501
-6.724837419,-9.084404455,-1.564455047,-0.410756719,-3.214702047,4.108160687,12.57005306,8.576332834,21.16993784,3.814029905,33.44776378,16.6817792,19.25290353,9.761555672,3.543873715,-3.042956787,2.236352147,-5.822213861,0.615076341
-8.199081108,-11.02605478,-1.455888092,-3.787309598,-4.254592196,4.275949034,13.18656909,8.935993778,20.08526503,1.289202576,33.64856521,13.4339063,19.16958501,8.958281743,0.49467055,-3.015636723,2.327747153,-5.288463347,0.500313798
-8.224280326,-10.25757173,-1.623711266,-8.324187815,-5.054849044,4.201565016,13.58363593,9.198211209,22.40377175,1.663411735,34.92691056,13.61870933,18.48869301,8.126480055,-1.574217442,-2.788152889,2.589441557,-4.584717721,0.719957565
-7.332419259,-7.576286195,-2.122421665,-7.348779233,-5.349380993,4.07572817,14.15083676,9.601028329,27.72776289,5.714930053,36.42939187,16.84525706,17.77803127,7.390786854,-1.21918349,-2.692734935,2.736750473,-4.422045253,0.862673347
-6.483264629,-4.900205245,-2.782378324,2.069841802,-5.38806396,4.075194653,15.04055624,10.06696369,33.41349979,11.29163427,36.94310528,20.48935142,17.37207542,6.572832952,1.442913143,-2.687726335,2.546585207,-5.015359019,0.738282007
-6.362604558,-3.739604203,-3.345893409,15.53610334,-5.536995044,4.273700049,16.0758697,10.56775866,36.17472105,14.96045722,35.82389921,21.69111169,17.17858391,5.33977448,4.788766761,-2.474600289,2.02507165,-5.911080129,0.509579104
-6.962644412,-4.131039383,-3.671791529,23.94600689,-5.80729192,4.622879967,16.8508059,11.32482602,34.46741546,14.70665073,33.51426335,19.40597305,16.80100333,3.462991861,6.744867901,-1.921055188,1.335844618,-6.405679656,0.470245552
-7.717234368,-4.882562612,-3.850692023,20.47260694,-5.757599426,4.985953621,16.94363401,12.58883327,29.81200198,11.48248277,31.27091245,15.04197944,15.84533383,1.033113555,6.08834659,-1.33234365,0.601389072,-6.148223599,0.7131287
-8.009360992,-4.821213521,-4.142701852,6.152787705,-4.864536368,5.186062752,16.11070939,14.20005278,25.83347827,8.330204625,30.3072265,11.31421026,14.17816608,-1.504320367,3.121400982,-1.259880842,-0.192344522,-5.383443649,1.017785606
-7.605878608,-3.875978175,-4.773506972,-10.66471772,-3.031615914,5.050963323,14.37031724,15.40899796,25.55085739,7.814429528,30.97307385,10.25610254,11.99572176,-3.5278917,-0.644229913,-1.984654186,-1.078248606,-4.638253894,1.060950941
-6.699758775,-3.025137279,-5.722409333,-20.59168252,-0.778328254,4.461750572,11.9719578,15.2510389,28.94691789,9.908540522,32.54406414,11.87536297,9.727723502,-4.543405417,-3.461456854,-3.145099629,-1.90539221,-4.165105331,0.741780618
-5.611768288,-3.201058717,-6.649920345,-19.97040952,1.075158354,3.410179388,9.302600987,13.26200589,32.79579249,12.08731393,33.73112996,14.36895627,7.87844115,-4.442184452,-4.284239235,-3.884447154,-2.294955375,-3.673274129,0.308056902
-4.484969722,-4.216773041,-7.036174397,-12.64715864,1.97572801,2.039369973,6.778045585,9.950608676,33.03168503,11.50857827,33.5077425,15.60874739,6.867113998,-3.562242181,-3.132901549,-3.448083947,-1.864369275,-2.612635178,0.160657412
-3.263253066,-4.775452967,-6.475023068,-5.685335129,1.984446319,0.624396511,4.73735194,6.571976231,27.90455242,7.411221918,31.66640354,14.70731564,6.871754811,-2.504928011,-0.826684541,-1.760181511,-0.560827379,-0.763774063,0.51428376
-1.942215655,-3.635125478,-4.96050927,-3.127266228,1.615753314,-0.524599953,3.35112356,4.305439859,19.45607402,1.712255499,28.77407304,12.5190406,7.704001997,-1.796536258,1.59429182,0.493371743,1.200631749,1.409089801,1.220551224
-0.805413746,-0.906791603,-2.979470595,-3.29478546,1.315506502,-1.19468874,2.578194492,3.461693183,12.10918888,-2.637499374,25.67133324,10.81886026,8.819354435,-1.577896586,3.373306635,2.347617185,2.764963052,2.999221453,1.902450815
-0.362412367,1.739764349,-1.316163597,-1.633692312,1.035529757,-1.354556921,2.216611689,3.362244648,9.433432936,-4.056083271,22.9711005,10.90049394,9.563402996,-1.501156181,4.272678084,3.220236017,3.68637504,3.333807419,2.262783879
-0.981594397,2.281279298,-0.645959448,3.973275484,0.282528047,-1.130298786,2.050535125,2.99866574,11.60091164,-3.405723841,20.92822627,12.68944666,9.593281679,-0.90825636,4.552042297,3.237568886,4.038139067,2.52968334,2.283890504
-2.509926076,0.027366945,-1.146812269,10.57467427,-1.386606728,-0.690242657,2.011707239,1.926405595,15.49379708,-2.879791307,19.67083686,14.96558053,9.199858244,0.789055966,4.771094323,3.005979658,4.312731216,1.444027508,2.160161582
-4.223529792,-3.635705572,-2.38012209,12.64907706,-3.840929779,-0.128865456,2.229617369,0.638155631,17.3056135,-3.7963618,19.44950525,16.39405333,9.215562605,3.730036562,5.476213743,3.062017852,4.979938936,1.026144608,2.068011467
-5.203750718,-6.142795309,-3.545753284,7.3106361,-6.284360436,0.558574603,2.904803856,0.093655577,15.51653791,-5.345765646,20.56637901,16.49233327,10.44919139,7.446019082,6.846391974,3.462272699,6.068010564,1.576129956,2.021784177
-4.891040732,-5.635657903,-3.975260717,-2.721588758,-7.715086858,1.396179197,4.082132612,0.805557227,11.89848561,-5.445258637,22.98782988,15.81904668,12.99412168,11.03199099,8.462610077,3.811006093,7.124628513,2.505268354,1.952797201
-3.420241015,-2.347996367,-3.552876257,-11.21415891,-7.604342397,2.32152026,5.510813293,2.279386731,9.859983846,-2.912575671,26.01220001,15.35828503,15.96373207,13.5735368,9.406681709,3.643748253,7.59637175,2.795781872,1.899918265
-1.506797858,1.60276533,-2.781010101,-13.65750474,-6.277616452,3.160994755,6.741469705,3.325398491,11.58242549,1.076325032,28.40753169,15.69650045,17.96915407,14.59558427,8.753407556,2.821758326,7.306380352,1.801603514,2.069272422
0.007880052,3.815340517,-2.437073869,-10.81331412,-4.707881661,3.726197411,7.427535444,3.02203851,16.28311026,3.691374775,29.07216475,16.66381433,18.08414565,14.26886356,6.225275431,1.640755447,6.62089614,-0.231063741,2.649695586
0.609535215,3.293460683,-3.049249604,-7.337859699,-3.881123538,3.961092064,7.60703638,1.536154185,20.91114017,2.826106183,27.78850455,17.63992587,16.58431171,13.24123007,2.561155984,0.626183266,6.156413537,-2.312821781,3.541090302
0.267241595,0.922912462,-4.547202561,-6.883679979,-4.205615007,4.012170725,7.714902313,0.091331504,22.57112712,-0.909118837,25.4644372,18.15161312,14.82710635,12.18763299,-0.751506484,0.217244262,6.267753045,-3.395423071,4.291592795
-0.738269258,-1.503072136,-6.319494174,-8.412265563,-5.369767958,4.144281713,8.268490773,0.067116053,20.65864825,-4.414185334,23.58884691,18.19991338,14.26957954,11.35696553,-2.312580734,0.557380823,6.741114553,-3.065380143,4.382514571
-2.09770562,-2.764079409,-7.619895875,-7.330399002,-6.683881501,4.548481344,9.443947721,1.93679881,17.08995633,-4.502849226,23.24040069,18.07146177,15.3344857,10.41090729,-1.694256144,1.45874065,6.941446832,-1.754138085,3.666798503
-3.618362927,-2.941571257,-8.024281663,-0.483630129,-7.580541321,5.184495038,10.88742619,4.900660539,14.66031942,-0.516517713,24.3843219,17.89136553,17.03216368,8.673587671,0.253224539,2.478120722,6.285732814,-0.36867604,2.568702848
-5.161028917,-2.909942686,-7.625114328,9.744817225,-7.879762828,5.785736927,11.95093966,7.513446974,15.02122837,5.08583213,26.01082284,17.40535541,17.7034796,5.644781203,1.93531395,3.046710032,4.657388514,0.331076368,1.806835922
-6.506876286,-3.221075166,-6.862860906,16.37841373,-7.674583234,6.034773787,12.20475937,8.799007319,17.85993336,8.723500678,27.01466805,16.24064533,16.35576807,1.446512086,2.047422129,2.669989562,2.451400001,0.153513127,1.811801997
-7.341109,-3.484977404,-6.160553918,13.42394107,-7.026807153,5.784707114,11.82534254,8.95674263,21.66559244,8.63437447,27.10432558,14.41547973,13.53920545,-3.098631816,0.396681879,1.206972443,0.263457655,-0.539049346,2.320741414
-7.400015353,-2.797689822,-5.644957401,1.290508208,-5.797780347,5.163106386,11.51523816,9.107696996,25.12167793,6.284289175,26.979879,12.58817401,11.02001784,-6.829255612,-2.050796592,-0.89318913,-1.480942244,-1.167678474,2.541490036
-6.646494574,-0.745586994,-5.132715088,-12.85976354,-3.780762346,4.482042627,11.96303841,10.308781,27.82929231,5.047217867,27.60875218,11.72246206,10.44613612,-8.835465775,-3.891839292,-2.632570036,-2.657033303,-1.29351558,1.822096988
-5.295437891,2.023966935,-4.340041462,-20.36766397,-1.008603586,4.022608101,13.23143581,12.63609974,29.90688504,7.271260563,29.19715403,12.35261921,12.0293522,-8.918001489,-4.225313642,-2.924926737,-3.284632666,-0.76730837,0.30659675
-3.648392226,4.24795925,-3.125257499,-17.51374631,2.05608696,3.852589651,14.55907818,15.04919431,31.1438861,12.2172166,30.76131774,14.02644368,14.29983711,-7.641964966,-3.14440177,-1.300831422,-3.305552522,0.331345897,-0.992669475
-1.885328841,5.112007325,-1.597794268,-7.671284234,4.645412008,3.804856094,14.77800343,16.10276864,30.74329786,16.61094597,30.75567978,15.43420118,15.1677233,-5.970107489,-1.501220292,1.615171593,-2.551960334,1.812513341,-0.84192497
-0.016097699,4.927619263,-0.069362327,2.423270586,6.059829106,3.621023699,13.08874075,14.92258664,27.99921198,17.3284353,28.34223731,15.22599756,13.49448462,-4.718121574,-0.214481609,4.300788796,-0.950366467,3.423646905,1.297254659
1.948606193,4.756096069,1.062987261,8.618291155,6.025684288,3.147649699,9.654327694,11.72487935,23.24110786,13.93660172,24.29125707,12.971288,9.963126071,-4.163394137,0.322121807,5.219543507,1.245956619,4.834203552,4.783743284
3.765510324,5.299218566,1.418608044,12.01101831,4.794571755,2.446043305,5.592635486,7.59119538,18.03486663,8.967807577,20.70245215,9.560134437,6.578735371,-4.014445322,0.337515921,3.85429484,3.452964803,5.657298058,8.142505537
4.915877249,6.097633398,0.721338663,16.10285149,2.950018258,1.750835077,2.371590737,3.798448656,14.29078089,5.75308763,19.6161856,6.717239854,5.195851482,-3.710057044,0.32308034,1.137206225,5.035901888,5.568599061,10.00381075
4.862660781,5.84300292,-1.081917054,21.56371516,1.091770205,1.320905039,1.016649425,1.249846747,12.96078623,5.69252753,21.47398647,5.921230842,6.204619754,-2.828080268,0.575009059,-1.116786135,5.663844589,4.463061031,9.943768621
3.452446271,3.596858358,-3.691960489,24.10197369,-0.392062349,1.288054506,1.627401888,0.309790768,13.42850846,7.255538032,24.579727,7.434997776,8.340562307,-1.354514128,0.985395107,-1.446901279,5.447711159,2.519905327,8.620947406
1.140426859,-0.173724754,-6.439074086,18.01234616,-1.38050788,1.590806775,3.43691029,0.913583697,14.10119559,7.469263115,26.03139158,10.07154861,9.677851351,0.314946559,1.154402188,0.204939434,4.752820296,0.101307059,7.157894956
-1.188732884,-3.755843932,-8.498575457,2.371222933,-1.968365446,2.013528153,5.270380657,2.635497412,13.65249979,4.530462609,23.54026553,11.82880656,8.971679674,1.598218976,0.641125433,2.398586399,3.860214844,-2.45638807,6.286728391
-2.72830393,-5.532444085,-9.304817745,-16.15528214,-2.408744927,2.291808278,6.062435953,4.61036326,11.82598091,-0.710834747,16.91737663,10.9875509,6.33519723,2.023037798,-0.856312462,3.136917208,2.778263131,-5.008821224,5.914337599
-3.23471947,-5.399300122,-8.919932031,-27.27415831,-3.064824129,2.22714687,5.18048017,5.55119245,9.185787701,-5.587386485,8.248247098,7.02987653,2.85981404,1.44066401,-3.437197909,1.172879422,1.360848139,-7.608658129,5.381463164
-3.125615751,-4.979629236,-8.056086122,-25.02553493,-4.300996202,1.768740988,2.530556711,4.175191336,6.228577906,-7.933601463,0.690715715,0.90199808,-0.350240051,0.073219782,-6.954934546,-3.235150541,-0.39833443,-10.3568079,4.126685156
-3.102736739,-6.323455217,-7.649903556,-12.89492344,-6.275658693,1.039703204,-1.443327953,-0.001565289,2.860494606,-7.827997174,-3.269995527,-5.454313257,-2.873578614,-1.603454538,-10.93475095,-8.594676953,-2.193142326,-13.22096482,2.182478259
-3.574637651,-10.09163552,-8.228533538,-1.225602197,-8.73250442,0.296702679,-5.813542506,-6.017416211,-1.18058405,-7.298412636,-3.013933424,-10.01061238,-4.901040773,-3.078876768,-14.55139091,-13.18491247,-3.544551394,-15.9567987,0.129784128
-4.317112884,-14.75058251,-9.515035634,1.295098549,-10.98168574,-0.172896178,-9.35539708,-11.59669861,-5.413722173,-8.354737398,0.183635809,-11.54964782,-6.630095219,-4.035762535,-16.8373848,-16.0176594,-4.153898253,-18.18209601,-1.383720606
-4.635368436,-17.5439,-10.59167512,-5.149330494,-12.18389169,-0.181834358,-10.94914994,-14.22377564,-8.29796848,-11.13768009,4.097270699,-10.15871302,-7.796910321,-4.487092298,-17.14306297,-17.11627884,-4.16002699,-19.54581134,-2.114078914
-3.90804543,-16.55462485,-10.5345149,-12.02826713,-11.82076781,0.26508326,-10.09713795,-12.58236866,-8.132731747,-13.7810408,6.756965513,-7.119470788,-7.815861996,-4.747870581,-15.59802228,-17.07556371,-4.052092048,-19.88168409,-2.295473499
-2.095716005,-12.23382825,-9.059365028,-10.51040349,-10.03817299,0.983274414,-7.24665671,-7.380094268,-4.598666147,-14.02006281,7.233783901,-4.244554121,-6.378452141,-5.235352545,-13.19345287,-16.40203072,-4.278905264,-19.26212491,-2.311553795
0.180506751,-7.151662544,-6.690718379,-0.021458396,-7.579265357,1.734410807,-3.617961558,-0.915402507,0.461665888,-11.06641672,5.757298589,-2.953730568,-3.91282166,-6.188778943,-11.29642997,-15.19162905,-4.86407003,-17.9365475,-2.302603879
2.055355824,-4.135950709,-4.328972493,10.49318021,-5.303487739,2.391802213,-0.539834461,4.368648238,4.000129839,-6.127907645,3.348617224,-3.537467892,-1.425316168,-7.470880138,-10.82377643,-13.30262111,-5.348802284,-16.19918976,-2.070256973
3.01461602,-4.249874854,-2.566886655,10.1921228,-3.615265907,3.024197715,1.312595158,7.336242615,3.988212984,-1.233844793,1.302847238,-5.017310782,0.187533032,-8.593978277,-11.61805799,-10.72607622,-5.12498479,-14.25931121,-1.347292707
3.215987811,-6.171653265,-1.304808088,-3.526462814,-2.230477703,3.819652513,2.240933478,8.591540526,1.194895718,2.467639328,0.741801586,-5.728853071,0.777745248,-8.988201386,-12.49536932,-7.744794891,-3.905984343,-12.18205588,-0.165963166
3.296367112,-7.397206696,0.036100347,-21.40368575,-0.476033848,4.88780497,3.151667534,9.640916412,-1.077308152,5.392344498,2.295642669,-4.329427976,0.985398,-8.365299329,-11.98640661,-4.75403046,-1.973965049,-9.936689009,1.023629834
3.824241814,-6.242032009,1.901452223,-28.96248347,2.091388691,6.08581247,4.758081968,11.5012986,0.650815347,8.663095463,5.924751623,-0.627717054,1.647270456,-6.944297972,-9.294836163,-1.982037986,-0.024315492,-7.53283205,1.607076384
4.827842833,-3.046213954,4.121338234,-18.29465816,5.225065215,7.018538903,6.975263781,13.867047,7.289353343,12.64033827,10.93458166,4.304808404,3.085315919,-5.3727289,-4.833744896,0.565322294,1.258533389,-5.160575317,1.229886049
5.764612494,0.286236103,5.969875842,4.901972985,8.057559521,7.24662408,8.992394139,15.45871394,16.21866686,16.29823332,16.22910328,8.82935767,4.87428421,-4.369591564,0.000297266,2.87293124,1.573503038,-3.218858545,0.051956357
5.948004739,1.904066787,6.710905024,25.26731564,9.662124198,6.575633187,9.963804594,15.20459372,22.98188772,18.05851666,20.72790361,11.7736769,6.255840377,-4.305072624,3.627790938,4.667503609,1.082400986,-2.163315319,-1.357670358
5.088180912,1.392396073,6.156546903,29.75297549,9.677222038,5.220364061,9.743038874,13.24046573,24.40984988,17.28461053,23.73397861,13.08391797,6.806375053,-4.981259176,5.115397652,5.479073652,0.209288197,-2.227776113,-2.381734283
3.515596454,-0.161326555,4.758873626,17.78803392,8.509138668,3.712351579,9.031499272,10.8870803,20.78710761,14.98553395,25.04199219,13.64735382,6.769976313,-5.748589516,4.542039811,5.04504854,-0.625992255,-3.197123568,-2.684476705
1.90941056,-1.336967791,3.167899796,1.191381359,6.960332235,2.600094924,8.791644795,9.621209023,15.40444462,12.99542322,24.76228259,14.45877153,6.791988239,-5.875819914,2.785116074,3.713649222,-1.135328637,-4.425274221,-2.290083382
0.747489195,-1.688677115,1.663042508,-6.020021639,5.589195696,2.145365586,9.399448238,9.88416261,11.91389217,12.32396048,23.06075303,15.79948524,7.324428061,-4.940090968,0.98322308,2.421316553,-1.127187138,-5.152343931,-1.422114925
-0.079688058,-2.055192405,-0.018720507,0.717152811,4.319014569,2.223899027,10.25395662,10.69766284,11.6225549,12.19281343,20.07139653,17.07096897,8.240459188,-3.016924973,0.037747587,2.146247785,-0.450647967,-4.955111617,-0.299854911
-1.173089069,-3.655654008,-2.288978167,13.18041717,2.604690028,2.486057853,10.19974226,10.39315424,12.83189436,10.70464878,16.05625307,17.38311492,8.970040504,-0.600712056,0.350158543,3.210675625,0.945417717,-4.02952527,0.92589453
-3.10980309,-6.805100158,-5.102195972,17.95421921,0.003885926,2.63843511,8.437463523,7.864194267,12.60061673,6.620030914,11.61901118,16.37236388,8.980656033,1.647811409,1.770502858,4.994178544,2.863037023,-3.081828122,2.087111739
-5.911473803,-10.38840412,-7.720771644,8.249715934,-3.336626313,2.622809588,5.170302723,3.353694699,9.334430858,0.667765289,7.673569341,14.53402345,8.131873224,3.164219753,3.661836084,6.331629662,4.789196004,-2.869318476,2.909898091
-8.929168871,-12.5717514,-9.145629796,-10.21402669,-6.699761993,2.561810223,1.435887389,-1.806890011,4.015595756,-4.842328973,5.048705394,12.76684344,6.593762527,3.643761914,5.070762671,6.322962904,6.06405101,-3.6972414,3.069037106
-11.26399093,-12.19524404,-8.926405066,-24.18004615,-9.321825919,2.5377635,-1.745894393,-6.236937742,-0.872809727,-7.864870495,3.943249452,11.51308102,4.470670877,3.094214816,5.064130509,4.937753191,6.241165781,-5.233531086,2.383690148
-12.422863,-9.7399995,-7.68432137,-24.23813349,-10.99376743,2.414035343,-4.186354539,-9.459285317,-3.687039268,-8.371115493,3.649392614,10.25843159,1.577325493,1.818520331,3.20014395,2.956570303,5.40073354,-6.783515929,1.000131116
-12.70827126,-7.11337694,-6.84605578,-12.80331142,-12.23395116,1.878681206,-6.588365676,-12.02748057,-5.140821315,-8.472842379,2.840525216,7.893888619,-2.325498636,0.34742545,-0.096714205,1.32777662,4.16131335,-7.822745839,-0.607972124
-13.0226874,-6.414755853,-7.694391908,-1.965722634,-13.86733424,0.706758673,-9.764810112,-14.79860667,-7.665742439,-10.74208632,0.340263882,3.72871853,-6.994759024,-0.695226482,-3.572636112,0.483624579,3.338669165,-8.379526172,-1.856114137
-14.20374001,-8.580435683,-10.4084515,-3.231935778,-16.33150784,-0.956019207,-13.65759404,-18.01168041,-13.15153905,-16.08830567,-4.069707202,-1.638088714,-11.38560473,-0.798875705,-5.714289624,0.165031152,3.469002439,-8.959531981,-2.347946427
-16.36727313,-12.82251762,-13.82399617,-17.96732364,-19.26224023,-2.531832463,-17.01602664,-20.94604299,-20.99619461,-22.94308237,-9.314392444,-6.336866226,-13.960831,0.220557336,-5.584161525,-0.144921705,4.528848206,-10.05019762,-2.059211055
