Channel 1 - P4,Channel 2 - O2,Channel 3 - P8,Channel 4 - T8,Channel 5 - C4,Channel 6 - Cz,Channel 7 - Fz,Channel 8 - F4,Channel 9 - Fp2,Channel 10 - F8,Channel 11 - Fp1,Channel 12 - F7,Channel 13 - F3,Channel 14 - C3,Channel 15 - T7,Channel 16 - P7,Channel 17 - P3,Channel 18 - O1,Channel 19 - Pz
-33.02749554,-28.31312371,-35.51236498,-41.51494241,-34.49712384,-18.34848032,-21.64224717,-28.38516335,-16.15270894,-19.51765784,-24.60898362,-34.98253218,-23.16459078,-28.37338193,-31.7422433,-37.49508628,-40.10017158,-34.6346943,-28.40514792
-29.34242024,-27.3095002,-33.70133893,-32.38232156,-28.89653548,-14.2491534,-17.13205783,-23.86933904,-1.132413369,-10.77411649,-6.732608632,-29.30942161,-15.78556772,-23.27387375,-26.02289349,-37.35496843,-35.30734382,-32.21804715,-21.78093093
-17.89968417,-19.39744447,-23.7903981,-18.67197409,-13.31557184,-5.050682198,-7.783027474,-12.75221942,18.9380568,1.899050013,16.07263525,-15.74549856,-3.81264924,-11.35558331,-12.71134436,-27.20823385,-21.71292162,-21.26721752,-8.730064388
-3.628462662,-8.241956833,-11.07860388,-4.81418826,4.211378543,3.929760446,1.544046407,-0.138237583,35.52631394,13.07648917,33.45297401,-1.476611197,7.303881749,1.052867436,0.731758829,-12.2042124,-5.776968354,-7.232261306,3.969295848
7.186752606,1.096558242,-1.602038422,5.90200698,15.04869943,8.085051305,6.595417717,8.563689603,42.40892015,18.528358,39.3220246,7.016349576,13.06703389,8.134154191,7.78623999,0.606550674,5.515805931,3.283626292,10.4780797
10.67477432,5.548458086,2.122606155,12.74477653,15.38957426,6.501168424,6.441897917,11.0053334,39.42958367,17.75025835,35.51434966,7.995841172,12.77608748,8.296658754,7.039557064,6.773505971,9.073251297,6.951347323,9.489349906
7.504257582,5.759540754,2.454082391,17.15383115,8.145162056,2.117737202,3.640630045,8.955888736,31.96272322,13.90715177,29.62921344,4.793738475,9.509294933,4.596863023,2.289501316,6.722205019,7.007308276,5.40771339,4.436766183
1.9644001,5.001151756,4.152407788,20.64522096,0.220012839,-0.83138399,1.941142674,6.481924107,26.81046645,11.34284058,28.99270067,2.588715004,7.462437216,1.83878157,-1.052639935,4.453409969,4.192217256,3.201704404,0.440780744
-1.22198876,6.31486735,10.17383257,22.65946518,-2.562546081,0.01411022,3.454172205,6.795627594,27.74353529,12.54714172,35.48171897,4.398170316,8.849925137,2.826886948,-0.116025113,4.016827296,4.269941824,3.92306675,0.501414911
-0.011156634,10.19976331,19.12107193,20.42738628,0.863879979,3.749722274,7.426753801,10.15828984,33.7757655,16.75767759,44.9554429,9.324138402,12.72555126,6.672784531,3.934668643,6.582667491,7.250073298,7.658097487,3.779616599
4.05833343,14.53324167,26.29836187,11.48622718,6.926575193,7.414199383,11.33266498,14.23142205,40.87704652,21.03217246,51.20850526,14.02499937,16.37331175,10.18805477,7.797243823,10.15795348,10.28963555,11.56251438,6.96137422
7.552576321,16.53739981,27.39697303,-2.905514429,10.73957518,8.566733684,13.14139517,16.31357565,45.25408797,22.74534845,50.9065545,15.79466671,17.84174086,10.87689687,9.246601681,11.7616942,10.59279528,12.69133511,7.259772757
7.894805864,15.04066313,21.81310642,-16.51291772,9.804312562,7.096418462,12.85443826,15.54742836,45.56901211,21.50394962,45.61005312,14.60216836,17.44783069,8.936084687,8.788151549,10.03472381,7.831037444,10.51930079,4.528432582
5.049205238,11.24681541,13.0438142,-20.89663961,5.351840261,4.97244249,12.20583313,13.41522496,42.84938015,19.11388145,39.76051426,12.63386236,17.15986014,6.755569129,8.568887414,6.193450658,4.183317254,7.127002705,0.964237069
1.05537811,7.597285357,6.032683914,-10.98049728,0.724295471,4.406102016,13.01377541,12.34044554,38.92065394,17.86795865,36.861292,12.09883346,18.63965047,6.62412611,9.901738028,2.802799844,2.259518619,5.175255186,-1.024557133
-1.89894974,5.858231654,3.699991157,10.44862545,-1.491879945,6.083584997,15.68430261,13.69935717,35.13218293,18.69817793,37.21627218,13.38776006,21.7630231,8.765524457,11.87467136,1.632963199,2.891594814,5.622962681,-0.804375727
-3.137680708,6.022076266,5.324748019,33.02582327,-1.174090139,8.853423721,19.04799118,16.86109055,32.33586414,20.67186134,38.7814533,15.10695921,24.84188964,11.34459622,12.32891885,2.435587956,4.672418254,7.157507313,0.264778032
-3.601135055,6.738778694,7.758293286,44.42801527,-0.082100428,10.89968666,21.46740135,19.88893881,31.52788426,22.06654282,39.78224022,15.70698703,26.18530454,12.25204428,10.19156196,3.507292529,5.44590502,7.647621053,0.343060387
-4.54305191,6.660730824,8.166508488,37.9226621,0.14224609,11.22779068,22.11942454,21.15852239,33.86709769,21.94007504,40.38524537,15.04139567,25.50287571,10.95994161,6.860701769,3.349500286,4.258420029,6.150957986,-1.134561885
-6.13518608,5.452307498,5.994811782,16.74940882,-0.51287315,10.20888143,21.37226679,20.51154704,39.59291955,20.81136141,41.95323897,14.39365546,23.922748,8.81318151,5.212164584,1.910244368,2.018820555,3.650652408,-3.012884363
-7.250380245,3.716820871,2.793941958,-7.75192582,-0.649656081,8.904489011,20.10639068,19.09557569,46.81914943,19.95836786,44.91123981,15.01469754,22.73289669,7.614470788,7.006041537,0.401349433,0.398776251,1.96163865,-3.564587096
-6.565590347,2.151015596,0.45253727,-23.04780329,0.973309731,7.973545994,18.7686876,18.19071761,51.74696163,20.08667161,47.60006634,16.61484957,22.10599954,7.885804889,11.00918215,-0.022841429,0.109917405,1.920720807,-2.112300094
-3.941581633,0.86054735,-0.417940281,-22.71718153,4.056748396,7.206667153,17.0767175,18.1038901,50.79747409,20.63213863,47.45971816,17.30250138,21.01552502,8.411001034,13.62098191,0.506271201,0.19283603,2.559481455,0.328217013
-0.811762951,-0.536561708,-0.616409163,-9.478520866,6.81803803,6.017599839,14.57376541,18.03290681,43.33869795,20.32899088,43.51168534,15.14502489,18.39758723,7.450068768,11.64236523,0.521761198,-1.034837175,2.001548564,1.896097783
0.803819065,-2.239744236,-1.158956894,7.540834621,7.416279802,4.284465881,11.39887668,16.91360456,32.75858337,18.49880854,37.69569972,10.03596677,14.44365419,4.49607673,4.939409945,-1.594849081,-4.256807375,-0.751433304,1.423379496
-0.147544616,-3.798174852,-2.070516195,18.85196984,5.482941702,2.646359023,8.455951864,14.45785915,24.63257146,15.85106818,33.5561098,4.207507639,10.78291361,0.968831425,-3.227462604,-6.157991729,-8.249077554,-4.758607225,-0.672150945
-2.910665491,-4.369948693,-2.328173288,19.74073856,2.451798775,1.943557744,6.771315921,11.50831527,23.00389458,14.0149767,33.24400963,0.831364881,9.320837863,-0.806540869,-8.521986863,-11.61440388,-10.64549754,-7.74702129,-2.830859532
-5.464496607,-3.480179461,-0.936691813,11.59983034,0.44451765,2.350765577,6.621751351,9.462380783,27.48309873,14.16036551,35.50775313,1.752601173,10.71495556,0.521462945,-8.638387919,-15.33064041,-9.765353044,-7.860988807,-3.64508504
-5.978676543,-1.538886887,1.953669456,-0.40619039,0.672399815,3.070434106,7.249766633,9.272598375,33.47491278,15.90650989,36.63243774,6.137439586,13.80159865,4.190355078,-4.736923427,-15.18997875,-5.968993664,-5.069691586,-2.854616388
-4.023680315,0.403429931,4.970362952,-10.92931261,2.646071901,2.936844619,7.45342963,10.80239607,35.52887936,17.5150647,33.70044628,11.08339271,16.46076319,7.872014147,-0.185234741,-10.91685203,-1.41819599,-1.101022683,-1.272908587
-0.663613201,1.462178668,6.558920393,-16.79870795,4.733826677,1.422342995,6.545270811,12.95883305,31.37309853,17.2761455,27.3801078,13.67562195,17.17450194,9.428290393,2.209636729,-4.293070361,1.533493983,1.945710786,0.12998974
2.483246482,1.557302349,6.185419458,-17.31866497,5.484660445,-0.861662583,4.847720427,14.40683192,23.59299146,14.95323087,21.7071277,12.88000779,15.98412743,8.419369281,2.169572758,1.807494647,1.985944515,3.09175736,1.067286507
4.352366831,1.319275763,4.632831468,-13.34100714,4.593655598,-2.641432134,3.319199357,14.30501665,17.68126402,12.05414554,20.87264478,9.899607873,14.13305236,6.192137214,1.633300244,4.927670935,0.886704043,2.897418024,1.964368067
4.862173039,1.390469581,3.185937338,-6.364607504,2.820772327,-3.032861193,2.683228926,12.61491972,17.9439856,10.64543,25.67313209,6.916472188,12.83756911,4.606042742,2.662819509,4.204157203,-0.013355181,2.63848628,3.264592462
4.517403369,1.806395761,2.505705078,1.832220465,1.11698169,-2.246233705,2.853453645,9.931257237,24.34381057,11.64106719,32.66867006,5.382930129,12.32393193,4.54681511,5.487021641,0.622233436,0.338038749,3.103449392,4.764783255
3.743178928,2.035627722,2.219652769,9.357217799,-0.17972644,-1.328476981,3.142889008,7.091444872,32.57946217,13.96024288,36.83841089,5.226855889,11.92778767,5.435968242,8.323630926,-3.69084803,1.58366639,4.051671698,5.651285425
2.60763259,1.599868566,1.53034522,14.57351369,-1.415733465,-1.186223749,3.012561865,4.840320195,37.21027524,15.26857999,35.54326981,5.428886819,11.03545342,6.002385815,8.998147251,-6.676865141,2.506748977,4.648382472,5.204812657
1.0830073,0.624621342,0.177958606,16.54009808,-3.03979195,-1.772269103,2.627995309,3.642176953,35.40378203,13.74462914,30.48621324,5.256794815,9.896094559,5.512885103,6.861180242,-7.386975299,2.226109672,4.307699828,3.502116602
-0.576970929,-0.258697387,-1.211618803,15.05404083,-5.022187043,-2.166827642,2.686771618,3.584245709,28.58725142,9.485144797,26.07245158,4.987203835,9.505138991,4.366883102,3.352573296,-6.306680243,0.959212953,3.126564822,1.452063423
-1.847218499,-0.587371813,-1.742045377,10.18898525,-6.844634348,-1.48090487,3.666187459,4.333694555,21.01812947,4.447445698,25.62959291,5.514247929,10.65408145,3.616847173,0.800039833,-4.831548696,-0.241030644,1.614357486,0.125503066
-2.376990184,-0.642249721,-1.231717958,1.896395171,-8.024331864,0.229851889,5.187451633,5.211224717,16.60023508,0.986674146,28.71266102,7.272704422,13.02416815,3.935853637,0.536300082,-4.256175694,-0.443869126,0.133113528,-0.023662593
-2.407128347,-1.28947856,-0.599277209,-9.63698362,-8.608775786,1.87062696,6.108889715,5.455222411,16.39008718,0.143326924,31.70262424,9.492459422,15.17171521,4.975919646,1.911103686,-4.942549943,0.385000232,-1.32949218,0.622185502
-2.656857033,-3.141724533,-1.219627605,-22.9388024,-9.120874907,2.14593535,5.325768434,4.611315787,18.45125172,1.003889507,31.04577571,10.4917247,15.46541703,5.642654407,2.937478903,-6.221353995,1.420610216,-2.870074834,1.318855347
-3.677705848,-5.79009747,-3.773591373,-34.55541501,-9.985982892,0.62761036,2.636264302,2.819273453,19.81573714,1.585759482,26.27766841,8.826234191,13.2163015,4.992813106,1.944746455,-7.067820741,1.711189057,-4.263073045,1.64021879
-5.236951243,-7.888833007,-7.59929082,-39.88805376,-10.99928726,-1.854953755,-1.029645058,0.767819728,18.83393601,0.50048328,20.29404558,4.408239442,9.10805327,2.97387635,-1.126383127,-7.008840674,0.933253415,-4.96017636,1.73690224
-6.358352067,-8.152352507,-11.12462538,-35.61750207,-11.38942805,-3.830294989,-4.191458794,-0.702370473,16.16909318,-1.927860132,16.80057671,-1.255495129,4.664186062,0.438485758,-4.731968051,-6.5113911,-0.431708647,-4.562832709,1.993171557
-6.09976461,-6.470340185,-13.0099785,-22.23510926,-10.49216848,-4.284913447,-5.734826185,-1.100213029,13.93411916,-3.942332136,17.2769571,-5.870297164,1.280421949,-1.485436948,-6.876055647,-6.493657701,-1.547392549,-3.286423844,2.485979941
-4.454664852,-4.146712793,-13.02054808,-4.65700026,-8.457923851,-3.341435201,-5.472336714,-0.546110211,13.88297147,-3.77024208,20.05792255,-7.617739605,-0.391890104,-2.10368812,-6.417872738,-7.336440782,-1.846572764,-1.877407251,2.817444042
-2.568695924,-2.955020112,-11.92018408,9.952765701,-6.325782916,-2.000498856,-4.015354617,0.381654712,16.1029597,-1.04425339,22.13819961,-6.043173688,-0.369145541,-1.431302736,-3.605994073,-8.262259232,-1.332418771,-0.970356598,2.498556593
-1.986951198,-3.716198467,-10.56921093,15.96597136,-5.311725564,-1.236316516,-2.199382765,1.086340688,19.0716095,2.875989887,21.90552172,-2.096541063,1.108114371,0.029733362,0.343726399,-7.731278935,-0.425613312,-0.471370101,1.499851002
-3.471397337,-5.565081057,-9.101886658,12.20365206,-5.84556799,-1.248977992,-0.591252725,1.34891638,20.85394331,5.910772384,20.32453323,2.532436447,3.805451452,1.686397406,4.091262935,-4.676694293,0.39290217,0.390105926,0.400474069
-6.336419718,-6.553384012,-6.937300852,2.092333071,-7.150719523,-1.476687414,0.597377166,1.410088424,20.47653449,6.804436458,19.64808055,6.261039359,7.289913209,3.088246138,6.766447442,0.379511018,0.823898748,2.296031796,-0.058078159
-8.866192009,-5.153300752,-3.575251522,-8.804039111,-7.752326752,-1.270538027,1.304246716,1.720753305,18.55399457,6.026612007,21.02597642,8.169210153,10.636012,3.943143525,8.05528175,5.329324644,0.778492551,5.02626028,0.372460406
-9.505367878,-1.484034668,0.606748734,-15.95123138,-6.552263167,-0.567022764,1.469870626,2.580844367,16.86236953,5.361127635,23.31843483,8.11393716,12.56756746,4.091236399,7.994118007,7.77121846,0.321437883,7.391430842,1.198472555
-7.889847304,2.697172314,4.339611272,-17.62851142,-3.644195903,0.05507567,1.139432185,3.931346678,17.22445679,6.508384344,24.20449996,6.537203787,12.15047253,3.569810293,6.804255832,6.692106876,-0.340723072,8.078310226,1.608041513
-4.936977462,5.212405626,6.296777052,-14.66911238,-0.244577651,-0.044945646,0.648669955,5.411763237,20.38995081,9.751832161,22.48589324,4.173100863,9.540274063,2.684215157,4.865276567,3.225037508,-0.863870496,6.729942889,1.213481197
-2.00730638,4.935970965,6.069639073,-9.110025089,2.184237432,-0.913858809,0.571944636,6.592909779,25.49584765,13.67120584,19.36264638,1.773058698,6.08790413,1.898109742,2.679264713,-0.171940277,-0.89295582,4.308975743,0.445406687
0.101250131,2.444019503,4.452302348,-3.117126831,2.920627398,-1.892573328,1.329416555,7.200930695,30.3556968,16.10267406,17.42358549,-0.114325386,3.5637886,1.518955248,0.697741347,-1.517671031,-0.316217611,2.380703452,0.222328736
1.49525062,-0.524738408,2.818865725,1.353359462,2.335972872,-2.165900064,2.736974263,7.204995991,32.44609389,15.64074457,18.24385294,-1.272134366,3.005102053,1.42025273,-0.891824622,-0.672571145,0.560749798,1.901987465,1.163653455
2.673834269,-2.257639897,2.154813174,2.760549321,1.411348246,-1.492134619,3.941794404,6.765604301,30.14997701,12.60362737,20.8210949,-1.793844408,4.059847208,1.102356672,-2.189993341,0.818940143,1.159653011,2.553388637,3.029713323
3.742459188,-2.004511117,2.543317382,0.679816471,0.884577601,-0.465809029,3.920846148,6.121614505,23.66032813,8.791257055,22.36284989,-1.903632711,5.341486521,0.126668132,-3.338927184,1.237602923,1.074748872,3.17437596,4.880661515
4.145533639,-0.140139441,3.424857796,-3.375760692,0.741895488,-0.07241597,2.233782555,5.490403734,15.04148092,6.237519469,20.79525668,-1.728245434,5.505756324,-1.415117859,-4.221501962,0.236626412,0.468341999,2.870637046,5.815617923
3.192267792,2.291431298,4.23076782,-6.190461117,0.422871242,-0.903422406,-0.551671576,5.00826187,7.329495125,5.861719648,16.74331874,-1.201187559,4.196938914,-2.841936437,-4.441383716,-0.930523225,0.009171505,1.760318911,5.649243654
0.877250201,4.137433359,4.719081277,-4.764009019,-0.514044437,-2.682392836,-3.136892693,4.707432447,3.088390051,6.965401694,13.13016886,-0.200293626,2.15744785,-3.365465871,-3.690608539,-0.726567695,0.296852981,0.67703047,4.953782418
-1.823189151,4.470450878,4.745707319,1.123012198,-1.888232861,-4.478139141,-4.309316902,4.527442579,3.205768592,7.888658319,12.64217273,1.176593938,0.50702078,-2.75520495,-2.217865201,0.955989876,1.207096451,0.142929568,4.468650863
-3.561311474,2.763139223,3.857491062,7.907376372,-3.004467513,-5.403825142,-3.711403145,4.361974008,6.615762574,7.30200706,15.25087178,2.442980341,-0.145981901,-1.611582934,-0.935312074,2.255771355,1.764086516,-0.355782285,4.434003778
-3.695880862,-0.894365818,1.327184135,10.24685523,-3.271061447,-5.221013598,-2.014041343,4.124433561,11.07739351,5.170324686,18.02329006,2.861532173,-0.041853879,-0.962387328,-0.954032336,0.611254314,0.772628075,-2.008610799,4.443060512
-2.918758124,-5.586339251,-3.195478655,5.024951111,-2.778561591,-4.38943538,-0.410337802,3.792442515,14.47131802,2.694607562,17.50999339,1.857023717,0.122771198,-1.473735815,-2.830335008,-5.0830346,-2.211862177,-5.478863823,3.90930467
-2.819684866,-9.716814653,-8.95111727,-5.725171272,-2.314019535,-3.590190077,0.157199079,3.400176764,15.78549755,1.311400875,12.74839323,-0.564869937,-0.131325352,-2.924931267,-6.101922624,-13.2090998,-6.36586171,-9.968424827,2.675667834
-4.644684911,-11.74240263,-14.05030859,-15.68426509,-2.758350848,-3.169299602,-0.514586541,2.992932098,15.25619748,1.537270517,6.318908834,-3.707049916,-0.726538446,-4.399939445,-9.507927263,-20.2097453,-10.03302384,-13.52622802,1.176771571
-8.206223047,-11.18966225,-16.442648,-18.69505169,-4.338023703,-2.95841194,-1.945728435,2.596937242,13.77519124,2.561472422,2.481949565,-6.493178017,-1.252121527,-5.045066433,-11.75523581,-22.9558031,-11.85099428,-14.4991091,0.003159735
-11.84129621,-9.181879929,-15.26459878,-13.4481118,-6.344849883,-2.561201734,-3.40322679,2.240725049,12.15646494,2.921372302,3.857216464,-8.018462983,-1.440503316,-4.752580954,-12.26339348,-20.90776137,-11.70372218,-12.93599114,-0.703210568
-13.51475628,-7.853384302,-11.50051785,-4.511535408,-7.581280733,-1.794018317,-4.321271027,1.998962516,10.81619963,1.759165086,9.325202578,-7.984168063,-1.39677263,-4.188791678,-11.35616396,-16.38471275,-10.72470952,-10.66829256,-1.414598155
-12.26621972,-8.848512487,-7.343551906,1.358557596,-7.218358324,-0.877640599,-4.458736554,1.983828777,9.946927727,-0.317053701,14.82931897,-6.745470607,-1.382823565,-4.150456557,-9.828689565,-12.72762056,-10.32892212,-9.859400696,-2.736313696
-8.919380255,-11.9585271,-4.681442309,0.690254599,-5.421998102,-0.238806814,-3.829208892,2.24665714,9.807462582,-1.486455556,16.40968362,-4.974872076,-1.423565236,-4.814995364,-8.302974997,-11.80493494,-11.05194245,-11.16059563,-4.690187469
-5.528964685,-15.04452965,-3.88046776,-4.081694595,-3.270282379,-0.135126476,-2.598238533,2.656387141,10.70873077,0.019926982,13.06666341,-3.20127457,-1.175406132,-5.539834978,-6.890517522,-12.80729935,-12.14426803,-13.04668649,-6.441664816
-3.985015446,-15.49807743,-3.826397176,-7.187042877,-2.017738989,-0.451195616,-1.061870094,2.891048184,12.65767632,4.527105556,7.304718178,-1.54664745,-0.222991315,-5.387921786,-5.356781774,-13.21582376,-12.24715846,-12.99152444,-6.80024018
-4.792496473,-12.24349955,-3.14663535,-5.130462271,-2.249528961,-0.834020612,0.359053805,2.620971302,15.04113786,10.42877187,3.124179923,0.183952477,1.469459469,-3.930676644,-3.544650752,-11.08120231,-10.57750315,-9.606108751,-5.145849863
-6.863897485,-6.726324595,-1.547892649,-0.35955121,-3.540093007,-1.027505766,1.231941745,1.795556111,16.77305179,15.01997217,3.167509538,2.168711849,3.397895272,-1.649332982,-1.643719457,-6.737972452,-7.629492301,-3.997894461,-2.023299858
-8.388347397,-2.015375224,-0.111634673,0.518801325,-4.842079131,-1.105146943,1.327257997,0.807294344,16.9318304,16.12287955,7.163313906,4.27661327,4.832603729,0.391572936,-0.096230678,-2.593649619,-4.814013812,0.819927516,1.122684596
-8.087143413,-0.606839256,-0.290712057,-7.223475839,-5.2859237,-1.408503521,0.766838751,0.343073776,15.43632304,13.40311096,12.57015241,6.065461871,5.346139653,1.310673206,0.722690088,-1.214609294,-3.349483905,2.078776346,2.907488168
-5.973931856,-2.593123168,-2.483349196,-21.26261143,-4.780844242,-2.256701456,-0.058777077,0.954382552,13.19735137,8.49144308,16.58163766,7.097518309,5.092371253,0.986604015,0.747302719,-3.27532468,-3.333990889,-0.693485689,2.926518334
-3.179969225,-5.636218608,-5.451425114,-32.64191902,-3.98226507,-3.66888234,-0.770832089,2.624237858,11.56705349,3.874794815,17.83573294,7.343017762,4.603346789,0.0187931,0.2121606,-6.984936634,-3.756392749,-5.306965455,1.930863252
-1.087737396,-6.792645231,-7.150768981,-31.9346119,-3.683171591,-5.30513563,-1.244312767,4.667580357,11.47375922,1.373365449,16.75147485,7.335231277,4.31064341,-0.817959111,-0.530864146,-9.383016288,-3.406602464,-8.481500642,1.156375169
-0.433044644,-4.776323436,-6.335896976,-16.3846179,-4.118809691,-6.644536421,-1.585869401,6.094484592,12.88915369,1.257823849,14.67444847,7.882663138,4.233542084,-1.12793642,-1.175853357,-8.441367968,-1.907411872,-8.113541498,1.368380127
-0.948999583,-0.900047087,-3.613161286,7.723664863,-4.724384168,-7.254195988,-1.866067703,6.230624751,15.0013876,2.53176556,12.81263278,9.466656673,4.094199174,-1.034567181,-1.512921563,-4.374847915,-0.0237935,-4.544681994,2.367911177
-1.686027422,2.009851926,-1.036752388,29.32647993,-4.528658737,-6.979198924,-1.878780459,5.183553817,16.89766086,4.03039504,11.75650846,11.74015951,3.7051671,-0.898739021,-1.434167374,0.707195464,0.964162641,-0.025434431,3.285668757
-1.705427789,1.831879912,-0.529873449,39.88913756,-2.882710426,-5.97722971,-1.205907299,3.832365152,18.17925097,5.424355224,11.61749519,13.56092301,3.226930814,-0.959308765,-0.989085957,4.366059783,0.269592205,3.009148027,3.346419821
-0.679604982,-1.250000872,-2.383039266,37.89517009,0.021292381,-4.624487741,0.413900996,3.338562877,19.05078096,7.363981568,12.3037941,13.66461053,3.042316411,-1.223219981,-0.448811166,5.349148314,-1.831973203,3.447360817,2.455428075
0.931037207,-4.967005819,-5.031533162,27.4625612,3.216812727,-3.355839962,2.731495239,4.486903185,19.91253516,10.70592193,13.58268644,11.59501415,3.384592544,-1.617488383,-0.22754245,4.024867649,-4.273485597,1.783354174,1.176960677
2.172394974,-6.746123289,-6.290437234,13.33712598,5.549376041,-2.48938672,5.011515057,7.247302729,20.89808978,15.47659884,15.03679327,8.219821419,4.101614661,-2.145382455,-0.598623288,1.672391707,-6.005631681,-0.725549919,0.208910641
2.163284024,-5.608432553,-5.068518719,-2.529963621,6.34558136,-2.083528561,6.49212935,10.77492859,21.78661502,20.41764719,16.21243665,5.350862409,4.800271171,-2.831292977,-1.385223851,-0.597607097,-6.660698477,-3.10066713,-0.161077848
0.621190205,-2.757580542,-2.220889214,-19.68553885,5.70128093,-1.896886544,6.937523252,13.79734269,22.32256368,23.5129507,16.97015804,4.603199777,5.231931393,-3.524646387,-1.944748115,-2.428599213,-6.603892646,-5.042144693,-0.193333177
-1.934186847,-0.543068879,0.101450275,-35.13515373,4.244720424,-1.514223646,6.815478612,15.16815355,22.57743112,23.17062061,17.65883032,6.249295321,5.530878714,-3.840990928,-1.592431204,-4.040102107,-6.466161541,-6.610449215,-0.394677746
-4.425469881,-0.73016064,0.075599588,-41.75749636,2.630180195,-0.615398211,6.923896264,14.35991013,22.95462413,19.26082487,18.77024409,8.945851897,6.054926301,-3.407451024,-0.211117816,-5.677713389,-6.64185366,-7.766543805,-1.096436582
-5.803974081,-3.405476139,-2.441041338,-32.36437152,1.183296247,0.762641187,7.761022752,11.743554,23.78995396,13.31030618,20.25458012,10.64719882,6.973645925,-2.244266839,1.471906208,-7.261925795,-7.147708049,-8.318366213,-2.259168724
-5.658700225,-7.18449933,-5.814534261,-6.897351072,-0.063818289,2.171643651,9.166082816,8.556363305,24.90496521,7.724127401,21.16856565,10.12317398,8.017066861,-0.900753275,2.287160136,-8.463404472,-7.829328399,-8.246133582,-3.590971945
-4.469615824,-10.3221407,-7.803764263,23.87189572,-1.070426938,2.994703881,10.52837978,6.497014549,25.55313334,4.531329167,20.19683242,7.955160827,8.662638797,-0.126715274,1.505924413,-8.987846949,-8.59059858,-7.909910316,-4.793431788
-3.307813765,-11.75507364,-7.098474772,43.01148274,-1.569285469,2.852269751,11.36359732,6.994165576,24.88040269,4.420467171,16.81897739,6.181526944,8.61456693,-0.288205978,-0.467679202,-8.73387456,-9.387772859,-7.772077563,-5.702988148
-3.138170561,-11.39360469,-4.146300205,38.52374432,-1.189007896,1.880516809,11.73060144,10.40770884,22.58162825,6.60203568,12.16056958,6.760202954,8.12185286,-1.030946027,-2.218380277,-7.732421789,-10.05725148,-7.846358243,-6.26728284
-4.177801388,-9.736229484,-0.781582648,12.71597926,0.160086677,0.653489959,12.11077174,15.60993459,19.25474109,9.495800224,8.626275494,9.973356154,7.800797486,-1.541508202,-2.27365815,-6.059553394,-10.26695344,-7.487441343,-6.475134093
-5.765806774,-7.381271427,0.978975967,-18.12869678,1.991694108,-0.216157542,12.8694458,20.33528562,16.18031005,11.7508335,8.357483784,14.03247879,8.084397204,-1.245409723,-0.213848383,-3.915226607,-9.754610755,-5.893527201,-6.362721683
-6.857901709,-4.878728951,0.120978405,-34.60859439,3.367984323,-0.501414896,13.81559116,22.28817617,14.68100391,12.95511653,11.62514857,16.27250041,8.792245551,-0.358345988,2.927542063,-1.794220694,-8.669685654,-2.987315364,-6.071988776
-6.797734434,-2.853037283,-2.912737732,-27.83683451,3.440916742,-0.479540775,14.30081941,20.45743198,15.48730806,13.6403623,16.4832205,15.08423204,9.237197691,0.221506346,5.322994744,-0.463791998,-7.638736413,0.147636025,-5.828007019
-5.788380739,-2.003362916,-6.646803189,-5.3437009,2.04407105,-0.654598897,13.8055156,15.80988165,18.4617366,14.6579837,20.07704203,11.11130738,8.807332032,-0.353773899,5.5927866,-0.582802567,-7.367847161,1.832323245,-5.771439586
-4.695930711,-2.766858943,-9.492312385,15.46244409,-0.121410487,-1.318312475,12.4904778,10.82163225,22.73254518,16.39852487,20.65204308,6.771886454,7.515555533,-2.118027963,3.69459789,-2.174161389,-8.036488513,1.052767153,-5.768418404
-4.328432339,-4.888341111,-10.58015367,21.07938817,-1.885551101,-2.318125458,11.18439966,8.045927845,27.04531045,18.40897937,18.69729139,4.471985163,6.016084313,-4.159821202,0.819392135,-4.419398347,-9.01037271,-1.595715106,-5.415655133
-4.756161537,-7.368455655,-10.09246904,11.86992577,-2.335368813,-3.223078151,10.76042558,8.60767391,30.13194005,19.6805559,16.34901996,4.914893169,5.058930258,-5.276635196,-1.551515926,-6.072098685,-9.208754386,-4.153828428,-4.326677709
-5.227828441,-8.988699709,-9.005729308,0.298818797,-1.360908462,-3.733204876,11.40880201,11.61737891,31.0422263,19.40915838,15.60838904,6.821726881,4.866467054,-4.900646444,-2.641782356,-6.275965164,-7.923408289,-4.666218541,-2.517206934
-4.779954148,-9.075729308,-8.449418302,-0.724814594,0.348029978,-3.96365563,12.43591029,14.88041453,29.46430475,17.67947557,16.87221569,8.215425265,4.993967678,-3.538675311,-2.685051488,-5.169524076,-5.46028068,-2.639126796,-0.556616019
-3.08185074,-7.892350758,-9.034551171,10.62086828,1.811178333,-4.341863993,12.78410921,16.36891524,25.96672461,15.54303049,18.92577245,8.137298081,4.795316286,-2.36839213,-2.434161555,-3.763677186,-3.056169855,0.585418588,0.706901481
-0.846560679,-6.323460497,-10.5010389,23.4509034,2.371714218,-5.197998717,11.84448611,15.40575669,21.94970235,14.36802856,20.23195718,7.335246671,4.054826299,-2.334908153,-2.418349127,-3.153218367,-2.078997634,2.862925244,0.694789468
0.552380387,-5.130432836,-11.88191027,23.76520611,1.9857781,-6.409241239,9.87677192,12.7813858,19.12787121,14.87329501,20.24967235,7.371002423,3.18720434,-3.490690115,-2.602215886,-3.689222661,-3.09770191,2.868066751,-0.488158236
0.0183247,-4.423259379,-12.11768221,6.989259861,1.058528484,-7.427103865,7.694093313,9.866363358,18.66260133,16.53513033,19.59759012,8.97343195,2.808503094,-5.080839073,-2.633230205,-4.786911215,-5.518428388,1.014698873,-2.10897911
-2.446677415,-3.789161972,-10.77749218,-17.31431202,0.056743892,-7.692150947,5.917431702,7.523980058,20.41822799,17.84044834,19.03674111,11.13170317,3.078858606,-6.223274224,-2.30072478,-5.503519037,-8.031516203,-1.015154221,-3.301197626
-5.635866292,-2.903828744,-8.424928115,-32.67427316,-0.751725674,-7.098976742,4.48096145,5.687112913,22.89582236,17.26889069,18.38717559,11.78691696,3.454778482,-6.552263997,-1.699198714,-5.351941631,-9.481115181,-1.669510045,-3.618420452
-7.836168378,-2.00242946,-6.336142606,-28.83271575,-1.273198937,-6.114599397,2.834668628,3.826982456,24.03578506,14.33944963,16.55036839,9.575326586,3.128491379,-6.296612909,-0.976633241,-4.614328639,-9.483805875,-0.665273621,-3.229550276
-7.854217399,-1.725647945,-5.686003057,-9.735317978,-1.420268982,-5.435031534,0.649053912,1.767228665,22.47833479,9.976681683,12.71802555,5.117255004,1.791071408,-5.827003148,-0.030801801,-3.881730886,-8.400011291,1.018205844,-2.647382732
-5.685970687,-2.461581208,-6.710113872,10.20768086,-1.064513352,-5.452225396,-1.647334144,0.041857649,18.47848019,5.929300135,7.62677124,0.68920012,0.025349424,-5.194734509,1.413327084,-3.27245538,-6.829485577,2.154204281,-2.266419029
-2.423306622,-3.814657571,-8.427721361,18.1887826,-0.207770758,-5.966538537,-3.038824748,-0.541241995,13.83101232,3.667789913,3.537408906,-1.502849814,-1.064111229,-4.146558117,3.339336007,-2.115912752,-5.154385711,2.321049946,-2.111838295
0.478098796,-4.758544256,-9.170741479,13.01898788,0.812820223,-6.377316926,-2.712178177,0.287225259,10.80677297,3.565614378,2.711434603,-0.998995742,-0.698520523,-2.588117511,5.075417836,0.49896496,-3.505494002,2.081780362,-1.972285655
2.049671564,-4.416085605,-7.617547149,4.706705151,1.379063172,-6.186671223,-0.795447156,1.861435968,10.782664,4.927446099,5.571963312,0.732328819,0.977890647,-0.982458822,5.542585939,4.709061434,-2.057037164,2.232306067,-1.726665747
2.250382078,-2.808403994,-3.666071601,4.383625166,0.994725693,-5.395393799,1.626721842,3.042034861,13.4639646,6.752318667,10.16686558,1.768305494,3.071429398,-0.190648816,4.085608553,9.298986824,-1.22379812,2.905467371,-1.514657827
1.798375933,-0.889901309,1.426543795,13.72762875,-0.227818416,-4.469853672,3.296023842,3.201632981,17.18570203,8.551343546,13.53404834,1.562906221,4.720232878,-0.792048419,1.226917752,12.1927633,-1.452895878,3.403272461,-1.581734079
1.59844629,0.211961362,5.721215302,23.34456931,-1.437043869,-3.925758726,3.743031393,2.879310088,20.04068872,10.54174062,13.93959391,1.480012017,5.775310592,-2.47113631,-1.405421396,11.78464781,-2.749323126,2.909081891,-1.969475753
2.174964929,0.125694948,7.641680402,21.57744534,-1.497348044,-3.895263629,3.625968601,3.462082967,21.04670739,13.10687825,12.14971597,3.480083477,6.768723651,-4.088525964,-2.097383501,8.133494357,-4.410678862,1.389554666,-2.389353858
3.435913217,-0.469641985,6.734767608,5.887401876,0.20801849,-4.048394645,4.140893738,6.049540456,20.59635328,16.06480226,10.6624716,8.060424081,8.215908224,-4.489879855,-0.29403635,3.065593418,-5.329503091,-0.192108475,-2.445790193
4.831832052,-0.457576393,3.735888293,-13.534202,3.207865632,-3.929748074,5.968708127,10.37935094,19.97019222,18.4643888,11.54510437,13.3014302,9.926162817,-3.429420259,2.947988822,-0.962351448,-4.729340441,-0.601408966,-2.021718324
5.730498705,0.706470652,0.004635058,-21.63266018,6.091393481,-3.413539666,8.618008205,14.7156661,20.32953901,19.16673163,14.71569345,16.01744851,11.00863927,-1.815304647,5.732868513,-2.434205724,-2.772104981,0.616560493,-1.448651726
5.743808445,2.454458649,-3.243694792,-11.44216628,7.347141173,-2.876765037,10.70741897,16.87897663,21.90284531,17.75810915,18.12196921,14.21925099,10.62968029,-1.015831949,6.736044003,-1.641777836,-0.514158872,2.683469988,-1.255064193
4.832235086,3.50661751,-5.452837638,9.087177798,6.326588579,-2.925731266,10.9700816,15.69630919,23.87875699,14.99913197,19.62140216,8.882674328,8.862354379,-1.765323861,6.093527616,-0.262655217,0.806021132,4.13721486,-1.682161976
3.187622426,2.887972852,-6.776436063,22.78736929,3.636430577,-3.886284122,9.186810522,11.80021851,25.00858434,12.3611682,18.88160932,3.464509235,6.826498764,-3.579356859,5.024625974,-0.039792567,0.616148837,3.921470961,-2.408548122
1.039137238,0.718554866,-7.758662116,17.33901491,0.671429739,-5.471609442,6.327640315,7.187817522,24.46577519,10.96509703,17.59850324,1.406404468,5.903213069,-5.184041375,4.530793204,-1.57458384,-0.657268518,2.111018337,-2.77739579
-1.444196834,-1.861311685,-8.900593945,-3.850123539,-1.357332746,-6.908813896,3.823694139,3.882588894,22.38826407,10.77222471,17.80519751,3.546727498,6.623460928,-5.608753779,4.342656794,-4.053216744,-2.003996394,-0.271917629,-2.375019185
-4.080868283,-3.539112932,-10.34770667,-23.3528138,-2.168709301,-7.447372821,2.564666736,2.690058693,19.77491281,10.70837338,19.74525091,7.502822106,8.15747985,-5.016974317,3.10680999,-5.94576721,-2.62182765,-2.091685777,-1.460729484
-6.522540369,-3.740718852,-11.81606406,-23.26040536,-2.393039125,-6.876176818,2.387227965,2.916588845,17.83138312,9.644789875,21.22962192,9.536100299,8.867702728,-4.559894207,-0.274838246,-6.021545585,-2.437884298,-2.816762656,-0.830072899
-8.212185049,-2.898690656,-12.75582674,0.047907332,-2.856134846,-5.669673254,2.387488404,3.159893194,17.19875981,7.438585547,19.18145486,7.427090523,7.518930035,-5.364706248,-5.30240694,-3.943705999,-1.983760663,-2.574307616,-1.170064521
-8.598140891,-1.957565537,-12.66212565,31.86987084,-3.772839798,-4.661673941,1.741516025,2.49435122,17.56217592,5.163918584,12.21558822,2.09648785,4.203795968,-7.510779277,-9.783466129,-0.202611281,-1.813960074,-1.684648851,-2.433826877
-7.541736425,-1.617870046,-11.37897192,49.48756162,-4.505784493,-4.486730168,0.372926307,1.152868594,17.90019395,4.319415276,2.169764802,-3.247415729,0.285312432,-9.867185121,-11.23948325,4.294177963,-2.019721938,-0.291580266,-3.79697622
-5.631637266,-1.950508204,-9.221914145,39.055952,-4.073918637,-5.180235504,-1.003851058,0.263236954,17.23436665,5.641310845,-6.714855278,-5.653093024,-2.544418177,-10.944952,-8.782476098,8.528847597,-2.250671699,1.489328732,-4.292484214
-4.072802558,-2.592909177,-6.819238254,6.0744047,-1.990482044,-6.195260431,-1.422052716,0.92543809,15.40307848,8.48292694,-10.42577852,-4.574300362,-3.323104179,-10.06902991,-3.955300276,11.46101069,-2.166356952,3.125889264,-3.630367424
-4.054717194,-3.200879444,-4.744581367,-28.52602031,1.246107015,-6.794616763,-0.332421891,3.354726588,13.32706474,11.26268145,-7.694372911,-1.967352166,-2.228302715,-7.914285669,0.203857519,12.15068081,-1.852085331,3.569632995,-2.504949967
-5.907092465,-3.673205889,-3.185891648,-43.47817272,4.400422389,-6.533012149,2.063876473,6.684996474,12.52437026,12.61766014,-0.614641712,-0.431989847,-0.177100002,-5.986005846,1.211757882,10.15391871,-1.791529408,1.868275042,-2.080071653
-8.624827251,-3.991538828,-1.912064709,-31.85412196,6.296150928,-5.513745253,4.975036964,9.50155475,14.12228262,12.34528796,6.922296554,-1.065331698,1.902468673,-5.492620689,-1.240253756,6.021918172,-2.422104779,-1.897910787,-3.023892912
-10.22043592,-3.961765238,-0.5942124,-4.532484883,6.555410547,-4.280936582,7.477879314,10.68057932,17.99352023,11.41873928,11.685294,-2.808091538,3.505909,-6.526531104,-5.288568152,1.380432673,-3.699123639,-6.244016698,-4.87340699
-8.843058973,-3.24621884,0.760294096,19.31692236,5.746063448,-3.451393684,8.951176931,9.982086149,22.63000284,11.1304796,12.70621862,-3.691505234,4.478396889,-8.167386492,-8.426335533,-1.780029871,-5.090896329,-9.038166964,-6.283550809
-4.019347428,-1.736242871,1.645471044,26.6624521,4.874413798,-3.338914374,9.269492329,8.086796604,25.91736136,12.09986648,11.16409396,-2.765315499,4.728143442,-9.338317431,-9.307049887,-2.325048276,-6.024463907,-8.989558349,-6.016642998
2.828215218,0.114985843,1.373641968,18.83046019,4.647652375,-3.800970315,8.741557262,6.144959741,26.36111264,13.92321389,9.03757408,-0.985287099,4.147090724,-9.654678104,-8.461473337,-0.831162817,-6.373915292,-6.697583187,-3.917166295
9.028822633,1.437014723,-0.317876076,8.023301312,5.058866977,-4.380313481,7.898462078,5.155270358,23.97179017,15.65536386,7.73188215,-0.331599632,2.827982764,-9.583102782,-7.528073212,0.734799519,-6.529903985,-4.282191587,-1.099649538
12.14500689,1.579264792,-2.857222445,6.0108185,5.550240313,-4.630227124,7.247477382,5.512014088,20.21663741,16.62363653,7.553587599,-1.999253692,1.264490031,-9.863584564,-7.782524988,0.48843931,-6.969307493,-3.72689263,0.818939968
11.35316351,0.731409837,-5.027496957,14.49132683,5.553405854,-4.409368218,7.075866026,6.912683251,17.07783258,16.86800604,8.025047756,-5.277670899,0.185292284,-10.76695594,-9.195065386,-1.767763619,-7.717412991,-5.207818575,0.864773699
7.818550868,-0.084768313,-5.708126593,24.47236645,4.952676133,-3.961909911,7.371080269,8.625158164,15.87339082,16.90650933,8.446018719,-8.084925719,0.054021026,-11.84519862,-10.66472555,-4.128452928,-8.224488314,-6.838023807,-0.639466629
3.835985982,0.221745428,-4.651177541,24.40580164,4.135422177,-3.737387185,7.898740291,9.95247783,16.63837645,17.14026941,8.222969513,-8.660270557,0.674457564,-12.35207346,-11.05841625,-3.899061767,-7.826699523,-6.185682872,-2.393191376
1.349994021,1.853113533,-2.686876324,10.04917906,3.648500591,-4.069579002,8.404599854,10.64192915,18.42195145,17.48570443,6.977558512,-6.938264304,1.331124716,-11.91803942,-10.10397469,0.17716921,-6.424455948,-2.444227258,-3.132704903
0.863209029,3.792506813,-1.15675903,-11.76316389,3.77087126,-4.925735935,8.807003258,10.99980718,20.17065736,17.54307642,4.70386991,-4.456713292,1.425312154,-10.87161872,-8.465460758,6.469158001,-4.767415621,2.520370665,-2.546612564
1.409872397,4.473743561,-0.969934475,-27.99386841,4.329799642,-5.895876815,9.221878124,11.62246286,21.47084006,17.07801807,2.018902824,-2.955077508,1.062974206,-9.943971554,-7.111453756,11.08007847,-4.023391928,5.229231412,-1.409784298
1.482945541,2.99110628,-1.985245701,-28.72697685,4.860381866,-6.436537493,9.781050941,12.89684131,22.61157509,16.313255,0.177247896,-2.934404583,1.018968292,-9.640604631,-6.635929091,10.3494184,-4.907482471,3.078485925,-0.886332127
0.161318278,-0.116323551,-3.176892338,-13.77250459,4.946329396,-6.212046548,10.39752503,14.61523698,24.02815226,15.74532055,0.522490699,-3.415725485,2.029230185,-9.831352607,-7.071492696,3.547530799,-7.054466584,-3.623248761,-1.587848186
-2.353401696,-3.184189729,-3.432326255,7.954541392,4.483877331,-5.30688338,10.72040979,16.02042687,25.6910649,15.6829342,3.544573621,-3.025367934,3.99845327,-9.890067675,-8.164152685,-6.243523442,-9.172465674,-11.67660821,-3.120078292
-5.045657462,-4.64196231,-2.351453392,25.07071435,3.716192807,-4.169381875,10.38514323,16.30994906,27.00326156,15.97491187,8.24464999,-1.361702417,5.859670534,-9.233120986,-9.65830357,-13.87052728,-9.915092059,-17.11240624,-4.42595638
-6.853919366,-4.172681508,-0.450401334,30.99822473,3.068596747,-3.333454873,9.38306105,15.26012336,27.2811243,16.19453087,12.47457434,0.607493013,6.299214041,-7.789801606,-11.25633844,-15.3887903,-8.833280298,-17.82212173,-4.602346225
-7.263109398,-2.871191199,1.323939353,26.78192004,2.92308355,-3.116910787,8.199702058,13.47646117,26.35681824,16.07531731,14.20287864,1.451732901,4.795079758,-6.037920844,-12.38991576,-10.62115971,-6.68635873,-14.72311084,-3.533262593
-6.363621101,-2.256379692,2.321315934,18.311769,3.452011002,-3.499209981,7.505769085,12.00915512,24.72461884,15.72225202,12.83006596,0.626771808,2.091136896,-4.628401561,-12.23625385,-3.185939398,-4.876309996,-10.64967227,-1.878947989
-4.516661838,-2.925388412,2.57358334,11.02288634,4.550088621,-4.236376249,7.567103983,11.55845735,23.06505317,15.33996134,9.506717263,-0.998689852,-0.334746686,-3.945364247,-10.19426271,2.033967699,-4.435912314,-7.937537324,-0.493248032
-2.03973727,-3.939074056,2.60210881,6.444509909,5.853345008,-5.091171458,7.853573472,11.86200723,21.55926339,14.7375132,6.147910718,-1.955637989,-1.403765964,-3.942921744,-6.503983381,2.193480784,-5.326635576,-6.639158741,0.228344435
0.817804168,-3.451105569,2.909578211,2.797303044,6.839114473,-5.983975681,7.259071134,11.78069741,19.6371994,13.18077062,3.916626891,-1.614747186,-1.239384551,-4.316126125,-2.400082666,-1.74290721,-6.54319411,-4.726158471,0.563551319
3.704470806,-0.110051902,3.631288139,-1.680528123,7.011101672,-6.956907002,4.88614913,10.09386814,16.46294311,9.916507543,2.431861808,-0.928780243,-0.973777162,-4.782114044,0.509510767,-5.917548841,-6.900096833,-0.014461444,1.12155522
6.108328753,5.833998168,4.594598342,-5.99692053,6.134150563,-8.011538932,0.847994629,6.453521079,11.81824867,5.051015038,0.374216825,-1.716496061,-1.728475003,-5.209185206,1.271817093,-6.408372229,-5.88311508,7.79379065,2.268681963
7.578854655,12.54119673,5.618832496,-6.702364313,4.410653521,-8.985792778,-3.565148852,1.783160638,6.645932554,0.003087121,-3.033386606,-4.999948504,-3.63141749,-5.531119438,0.220391066,-1.899051416,-3.949237657,16.57597974,3.797815535
8.06387012,17.67616152,6.684541905,-0.908149083,2.464761028,-9.592692951,-6.57647796,-2.205203316,2.718472584,-3.051931107,-6.977711424,-9.792933894,-5.684784195,-5.605384945,-1.339507479,5.631502779,-2.114524378,23.13517067,5.087256821
8.014573903,19.77285837,7.788806629,10.58795968,1.083532913,-9.596495755,-7.033182437,-4.050185307,1.56827069,-2.547216724,-9.418771938,-13.45636177,-6.565205985,-5.209318766,-2.166086231,12.49711484,-1.199605392,25.33047562,5.593101351
8.080794942,18.9430668,8.676533458,22.77193849,0.823095546,-8.981889513,-5.145840278,-3.403212444,3.423535515,1.249525297,-8.649088121,-13.48958727,-5.664446029,-4.206109656,-1.981437312,15.85016445,-1.305270231,23.3695546,5.270365626
8.59659306,16.56151964,8.811727638,29.12754338,1.705164025,-7.981579325,-2.322067468,-1.134611452,6.943442381,6.145493469,-4.784558161,-9.433900505,-3.522870363,-2.726183898,-1.480014291,15.33203875,-1.852099044,19.39868082,4.599464244
9.287167802,14.29584483,7.736919402,25.73144283,3.19853757,-6.950502447,-0.236874085,1.3158711,9.984385699,9.286465099,0.072182131,-3.407912063,-1.368008799,-1.179630763,-1.46338009,12.81657871,-2.070017946,15.87368745,4.216179481
9.475216123,13.19805707,5.557441149,13.82117243,4.504517856,-6.195959042,0.163121277,2.808761032,10.88548079,8.95846436,3.187016306,1.188977047,-0.221689976,-0.061298168,-1.905343374,10.70842986,-1.526164617,14.03543629,4.441613064
8.641455493,13.36116151,3.08360592,-0.938927758,4.966952595,-5.885763016,-0.966491682,2.980985398,9.401959317,5.645468359,3.029195747,1.887211241,-0.325843702,0.311911218,-1.84031623,10.22079259,-0.329621761,13.54828161,5.062308308
6.872492753,14.15258405,1.398433445,-11.89295777,4.354422588,-6.06073746,-2.764354153,2.110252153,6.695183582,1.571697084,0.187100507,-1.312524974,-1.258273817,-0.057408063,-0.248516186,10.85683554,1.046096948,13.32212804,5.501552114
4.807511455,14.69558038,1.115301103,-15.10748367,2.867106799,-6.675495681,-4.380244832,0.650475416,4.46825471,-0.924055215,-3.247903882,-6.118068857,-2.469003699,-0.906938211,2.805551523,11.24290697,2.100182359,12.63667279,5.228842837
3.120746735,14.27885464,1.907364162,-10.96125765,0.919138085,-7.586302549,-5.403580217,-1.093975963,3.894619747,-0.972350276,-5.213138929,-9.615159551,-3.667352987,-1.900965244,5.827229891,10.42870582,2.528310182,11.61702644,4.098698623
1.982248594,12.58965905,2.719552013,-2.925179963,-1.114102518,-8.499976916,-5.766439097,-2.931480355,5.036645527,0.428798085,-4.878963351,-10.17407566,-4.7642222,-2.801457784,6.770964042,8.56400794,2.232747542,10.81665359,2.392415936
0.965252499,9.813112506,2.530834558,5.127627271,-3.012196289,-8.989619318,-5.408477637,-4.56307859,7.019260979,1.413894933,-2.733465895,-8.297022454,-5.594305108,-3.535905054,4.54125295,6.537586501,1.22685106,10.46308096,0.573680678
-0.515716373,6.607855414,1.076369092,10.94027667,-4.65950799,-8.661029354,-4.17514408,-5.532153518,8.686513985,0.801595274,0.200720566,-5.982072906,-5.863278851,-4.169891201,-0.067610615,5.074883427,-0.399589145,10.13384052,-1.026791988
-2.614487943,3.885825923,-1.033846931,13.99646643,-5.937318085,-7.414698615,-2.109191667,-5.492005868,9.224470295,-1.014759731,3.096735228,-5.235909384,-5.467236766,-4.837103432,-4.786683806,4.1707459,-2.407222522,9.144135734,-2.357214206
-4.826116211,2.380948056,-2.865554945,14.28471489,-6.691461992,-5.613326099,0.190187221,-4.570876089,8.399393316,-2.473608564,5.351752114,-6.834291015,-4.839589402,-5.65874469,-7.378276097,3.325358866,-4.340951357,7.23946894,-3.536964974
-6.329029347,2.196419496,-3.900684655,11.32171573,-6.813032265,-3.975513706,1.632397003,-3.450047496,6.426404304,-2.156508527,6.140773301,-10.06870274,-4.835463054,-6.658820748,-7.107226399,2.274764575,-5.6237567,4.919821813,-4.616919771
-6.61543025,2.664659285,-4.358863515,4.582587269,-6.348987458,-3.198777967,1.265612667,-2.985236729,3.730611998,0.052649464,4.307333776,-13.4253999,-6.072258029,-7.700340071,-5.089621315,1.459663616,-5.832760311,3.082747263,-5.42682078
-5.885623565,2.724130841,-4.875792382,-5.066444521,-5.522506582,-3.537888587,-0.954056228,-3.610191496,0.828064757,2.835522046,-0.912224063,-15.55379852,-8.242811979,-8.501968356,-3.322459027,1.73193848,-4.991648367,2.302901853,-5.648295861
-4.887652429,1.642164344,-5.86623162,-14.5352537,-4.619565663,-4.638847979,-3.926198183,-4.990262404,-1.665229539,4.380929864,-8.776198659,-15.8609509,-10.09455231,-8.773256579,-3.204085344,3.51039416,-3.639828347,2.391863536,-5.062574948
-4.352303488,-0.412089654,-7.139437675,-19.56801745,-3.818954591,-5.770566658,-6.01961907,-6.222664549,-3.059713007,3.650498351,-16.63392709,-14.49927636,-10.26696622,-8.410026794,-4.672957057,6.132508809,-2.563215017,2.626439056,-3.77289129
-4.497798832,-2.403145231,-8.074291226,-17.33411327,-3.102122751,-6.310313459,-6.157806237,-6.446491702,-2.789571013,1.047379516,-20.97535193,-11.98185541,-8.393343033,-7.600899155,-6.514358018,8.037840297,-2.316119571,2.438592685,-2.21034206
-4.988659735,-3.104267779,-8.156209422,-8.627553198,-2.324476018,-6.144756498,-4.558395754,-5.402087796,-0.731647113,-1.917420045,-19.50508752,-8.825035384,-5.526387727,-6.72381223,-7.437890137,7.748166015,-2.844404955,1.954512349,-0.894831121
-5.326282037,-1.945863394,-7.384514121,2.259004343,-1.403043671,-5.703438136,-2.533550676,-3.540301417,2.568113076,-3.624217735,-12.80235322,-5.449791833,-3.429433274,-6.07497157,-6.997014786,4.939094228,-3.488276926,1.902167314,-0.116127318
-5.290149318,0.584150771,-6.219419272,10.18475308,-0.476524641,-5.609813336,-1.494225767,-1.661398721,5.972048562,-3.272375305,-4.219682349,-2.290016665,-3.232308813,-5.643838377,-5.68699638,0.78445564,-3.402047086,2.95287889,0.227168836
-5.043417878,3.276253164,-5.174476084,12.43257008,0.099401023,-6.212143528,-1.942166386,-0.422510229,8.169924262,-1.174945214,2.089973034,0.102968909,-4.552992158,-5.152856624,-4.316372285,-2.708379263,-2.137584785,5.051171631,0.503736871
-4.846951899,5.000049052,-4.457899864,10.06357081,-0.052419623,-7.332735511,-3.235502677,-0.090359431,8.260127402,1.618836256,3.695154023,1.126160194,-5.857449576,-4.37283677,-3.32047226,-3.902357501,-0.003584655,7.308038558,1.029848151
-4.682694778,5.366308875,-3.963842479,6.324622844,-1.05660037,-8.399524565,-4.26938273,-0.634607747,6.198108155,3.982547631,1.176525921,0.36747441,-5.79758078,-3.461230297,-2.617139809,-2.431533534,2.060343575,8.576005831,1.799487237
-4.156029157,4.8026568,-3.540543774,3.549630527,-2.615630599,-8.84220191,-4.464185344,-1.942709325,2.869770472,5.204968058,-2.673242175,-2.109500981,-4.40627264,-2.995664639,-2.025404691,0.768039448,3.04079658,8.272717168,2.479983062
-2.783684746,4.086132083,-3.196825685,1.302237891,-4.080868077,-8.460886867,-4.228601741,-3.882633851,-0.27196123,5.121891114,-5.024121238,-5.62098184,-3.109521114,-3.596849688,-1.734269096,4.196927987,2.489721983,6.819451161,2.686215998
-0.428470123,3.777335037,-3.011699982,-2.578319972,-4.761027156,-7.524915743,-4.539746047,-6.171613605,-1.85854294,3.982001107,-4.870417145,-8.992538261,-3.507918204,-5.396477594,-2.292364039,6.684257625,0.824310657,5.359985854,2.322489286
2.479878523,3.991096394,-2.871235902,-9.005415474,-4.314820686,-6.570788268,-6.037694022,-8.272869534,-1.252143312,2.242301253,-3.275907897,-10.97815989,-5.946168884,-7.793813269,-4.074582452,7.82756271,-0.923840859,4.972016637,1.712885387
5.108326573,4.57057025,-2.395870333,-15.61513352,-3.003075565,-6.068977084,-8.422035289,-9.556623856,1.121913537,0.400524222,-2.067905021,-10.82855214,-9.100296264,-9.761735519,-6.710538652,7.832384525,-1.76174909,5.948419037,1.392030545
6.626963653,5.365582704,-1.269639038,-17.90071076,-1.631934678,-6.18094113,-10.64895536,-9.696328567,3.937259675,-1.144797874,-2.243280158,-8.73475513,-10.9645269,-10.52494286,-9.052144869,7.07947047,-1.370292204,7.645670555,1.691987484
6.559594389,6.282098076,0.245538622,-12.93868372,-1.181691658,-6.724827751,-11.73342279,-8.983141828,5.572877078,-2.228854566,-3.415454072,-5.855953308,-10.43083505,-10.09913583,-9.82817322,5.854203355,-0.305060837,8.962296933,2.435665993
4.88815511,7.071351527,1.1197983,-2.570700975,-2.300199485,-7.317473647,-11.46818564,-8.231924715,4.881301144,-2.999135916,-4.593261385,-3.811148911,-8.146953679,-9.252496971,-8.548383103,4.384722415,0.371834341,9.066999659,2.990120312
1.954308863,7.152381102,0.028303969,7.048071426,-4.937057613,-7.575266501,-10.48421992,-8.268559762,1.732588239,-3.850044278,-5.391143187,-3.829242542,-5.951018876,-8.899332282,-5.97045528,2.975537093,-0.210945052,7.863826179,2.675816397
-1.673344586,5.782585327,-3.719748876,9.740234875,-8.334764473,-7.269992883,-9.662770189,-9.362370465,-2.944885806,-5.19976727,-6.456990444,-6.024597094,-5.382009796,-9.399266508,-3.735459547,1.946886139,-2.162657226,5.922217085,1.258446362
-5.277516956,2.572528547,-9.465350369,4.234381478,-11.39512251,-6.397742383,-9.43954461,-11.05098154,-7.628732892,-7.22566378,-8.699095126,-9.27343759,-6.520419424,-10.31959517,-3.378855295,1.35440743,-4.751068605,4.001169284,-0.827511746
-8.086451409,-2.025358538,-15.31083959,-4.421072715,-13.21529661,-5.164189037,-9.572429171,-12.49753763,-10.89156202,-9.729528857,-12.05453935,-11.83676674,-8.088407432,-10.83952346,-5.371163303,0.785502546,-6.85093734,2.557933313,-2.69547591
-9.490429009,-6.69096296,-19.08918201,-8.531451949,-13.48157502,-3.900524823,-9.492215326,-13.07780335,-11.93315937,-12.21694225,-15.0214126,-12.38736601,-8.642248065,-10.44530728,-8.814644837,-0.442294319,-7.613331333,1.586481307,-3.528041886
-9.336905223,-9.792464074,-19.5655067,-3.920518917,-12.4994461,-2.929886943,-8.852823695,-12.70984256,-10.72157421,-14.11611702,-15.54109521,-10.7919064,-7.786381771,-9.332998787,-11.96847787,-2.696535966,-6.923776285,0.847383171,-3.054776965
-8.080178377,-10.2001363,-17.05295653,6.314132335,-10.87581707,-2.428721451,-7.782198363,-11.68376873,-7.78831077,-14.97460211,-12.61259901,-8.125748227,-6.391774626,-8.197869811,-13.23971089,-5.494648094,-5.383837948,0.254002673,-1.67386359
-6.572658529,-7.836869099,-13.0603642,13.71287948,-9.094737098,-2.352808651,-6.667176558,-10.20818822,-3.917777935,-14.53225844,-7.300461916,-5.906052408,-5.717622919,-7.618135925,-12.02194272,-7.544384,-3.878548152,0.079716586,-0.157444024
-5.541284882,-3.647060885,-9.29586526,10.85286867,-7.282188236,-2.480962016,-5.743112836,-8.145972274,0.05958689,-12.7079089,-2.208068887,-5.070644269,-6.277387634,-7.577508684,-8.917184694,-7.494462375,-3.047908188,0.802283938,0.836697487
-5.094225263,0.919750907,-6.759893757,-2.628095376,-5.297366358,-2.558617253,-4.897262368,-5.223561815,3.360451681,-9.609649254,0.284937305,-5.408727806,-7.441128338,-7.528973807,-5.288065317,-4.933466715,-2.998789623,2.684835612,1.112097854
-4.659653813,4.534562655,-5.477690228,-19.12390126,-3.034295734,-2.446151208,-3.83934866,-1.528740719,5.377005398,-5.60864107,-0.307674411,-5.823138047,-8.046828998,-6.915324047,-2.473111771,-0.874396586,-3.387822049,5.406664039,0.930616186
-3.464986497,6.395889755,-4.858180041,-28.10474726,-0.661711877,-2.164628665,-2.42225018,2.20629601,5.936842764,-1.378107415,-2.303301535,-5.204983207,-7.395215947,-5.665300036,-1.138108679,2.740113129,-3.744678667,8.0520731,0.710484054
-1.229082755,6.350975122,-4.228658081,-23.36834311,1.407803581,-1.810018943,-0.775313544,4.895164912,5.56141329,2.248036318,-3.193460063,-3.269354457,-5.732363397,-4.226120619,-1.091099916,4.258816402,-3.775892527,9.538177511,0.676834404
1.472921043,4.856860683,-3.122352512,-7.139738211,2.796381595,-1.418594805,0.859080843,5.81418561,5.417346329,4.615282034,-1.56812738,-0.750529049,-3.875157544,-3.126830755,-1.581808689,3.425407455,-3.461261249,9.255763344,0.721617973
3.495160888,2.870510652,-1.276784511,11.78608503,3.45026217,-0.913531188,2.368599727,5.175299599,6.764962208,5.594876673,1.852849335,1.158485447,-2.44400163,-2.495459495,-1.831115266,1.544387251,-2.943143516,7.514306962,0.553046099
3.881535326,1.601107125,1.386863493,24.11720535,3.68465059,-0.195352937,3.792816241,4.036697309,10.09228725,5.650760194,4.836543249,1.681129788,-1.470864812,-1.988325496,-1.445241553,0.547744423,-2.356840453,5.459442091,-0.004459622
2.543948755,2.03080189,4.59989957,25.71526369,3.926314095,0.693076473,5.072125064,3.550532536,14.4937127,5.495507551,5.374037137,0.989591806,-0.699870873,-1.20199571,-0.498680299,1.610743314,-1.755635536,4.443836759,-0.802134651
0.351589684,4.319647084,7.540592431,19.03728433,4.351864332,1.478828468,5.800861373,4.104865613,17.85605373,5.523717258,3.179652465,0.0078492,-0.169504971,-0.18165509,0.677971661,4.306640836,-1.168396131,5.194758447,-1.41533596
-1.429614211,7.475587157,8.952780835,10.13932373,4.720875158,1.754316402,5.321698704,5.035259719,17.94231618,5.444212558,-0.160824376,-0.353221863,-0.386045014,0.468181953,1.771654518,6.896602578,-0.701711475,7.293870809,-1.420366914
-1.92737442,9.675059007,7.758124209,4.194047936,4.557880435,1.217281913,3.19524956,5.143846144,13.79815286,4.454684394,-2.428060577,0.052696223,-1.837799732,0.020083307,2.589076914,7.521181419,-0.56438972,9.331064272,-0.703794555
-1.126884773,9.234735483,3.845020739,2.873353502,3.5556872,-0.108022843,-0.316335541,3.62478279,6.550845766,1.92109995,-2.38949706,0.443515415,-4.316329201,-1.735377327,2.951618093,5.423580485,-0.965644428,9.687521304,0.418200256
0.256855581,5.701603338,-1.595181377,4.736212098,1.881801664,-1.831259633,-4.209532087,0.681340055,-1.037766522,-1.896701632,-0.585862529,-0.31581285,-6.779027632,-4.187050035,2.573695932,1.36110086,-1.949596038,7.496535275,1.363847957
1.310919576,0.299718703,-6.587331244,7.230150843,0.130722885,-3.373184055,-7.266551342,-2.617359885,-6.094781806,-5.657852213,1.218547661,-2.782863691,-8.009883439,-6.210890362,1.159160608,-3.000748862,-3.288181882,3.195997398,1.63277455
1.431584912,-4.680424607,-9.495861526,8.230184445,-1.063285811,-4.243604256,-8.781091582,-5.084023737,-7.292520921,-7.564570459,1.398206648,-6.312678774,-7.548856996,-6.856656649,-1.261540056,-6.178672267,-4.522735254,-1.673235924,1.109196309
0.50381259,-7.230477332,-9.960876285,6.359373196,-1.469132478,-4.247949898,-8.912489334,-6.162939515,-5.536368791,-6.501196999,-0.421304651,-9.223136726,-6.034408751,-5.886388082,-4.033382992,-7.632893794,-5.151696791,-5.301708198,0.121287598
-1.224941201,-6.820941033,-8.933511941,0.936200624,-1.422479713,-3.521914665,-8.391823909,-6.141739701,-3.205708474,-2.960158525,-3.259151521,-9.720570268,-4.597693523,-3.793735684,-5.997049785,-7.734024703,-4.873454449,-6.568496371,-0.780818652
-3.342879221,-4.621621146,-7.789796784,-7.459707526,-1.584123534,-2.419555366,-7.851675143,-5.762328181,-2.462072209,0.935622434,-5.612188949,-7.035740262,-3.83471516,-1.380531486,-6.136349905,-7.124968038,-3.759190969,-5.554886656,-1.176924764
-5.372535349,-2.611788347,-7.253185842,-16.13043218,-2.472087073,-1.354033272,-7.367478284,-5.632458219,-3.793962512,2.475537804,-6.483347908,-2.038541408,-3.322641765,0.703528974,-4.380075326,-6.096652746,-2.260929338,-3.350692874,-1.021015644
-6.812851162,-2.24497642,-7.015249021,-20.57484303,-4.108296549,-0.669002515,-6.591477511,-5.914287856,-5.801159079,-0.067099204,-5.83923065,3.111708664,-2.175050581,2.117939314,-1.901273123,-4.4897793,-1.033918722,-1.335710333,-0.61860553
-7.274219339,-3.623318622,-6.343203477,-16.85495712,-6.019688768,-0.552488907,-5.309572652,-6.441689641,-6.339780336,-6.277505034,-4.288661852,6.130274228,-0.137934622,2.703983572,-0.49841083,-2.130175918,-0.638977663,-0.41149606,-0.367953435
-6.728940419,-5.700232241,-5.093910998,-4.848097275,-7.559990949,-0.975618504,-3.85639376,-7.026381552,-4.184685237,-13.62068983,-2.408616399,5.905634557,1.860328246,2.372756448,-1.328492376,0.655639026,-1.257708709,-0.625832448,-0.46298307
-5.677443277,-7.229583737,-4.168704997,10.31224655,-8.292866888,-1.671343057,-2.952883649,-7.606345224,-0.012974294,-18.72150235,-0.347990134,3.133642035,2.366834719,1.233019787,-3.882806731,2.946247071,-2.569681888,-1.334368319,-0.777141627
-4.978873825,-7.654928959,-4.903626294,20.51375323,-8.168355418,-2.207418378,-3.076520182,-8.125548605,3.98217568,-19.2043334,1.997848558,-0.121945134,0.808292797,-0.163330676,-6.089233721,3.682203773,-3.882204424,-1.707397732,-1.004804761
-5.329055727,-7.27788952,-7.830731984,19.70774046,-7.417775017,-2.1790528,-3.939817233,-8.347341731,5.553810708,-15.01287713,4.494364311,-1.681948611,-1.62980942,-0.827574173,-5.669516543,2.343650604,-4.478103577,-1.231128893,-0.936203737
-6.712615434,-6.696074132,-11.86528675,8.182272869,-6.314020942,-1.445951658,-4.598260766,-7.879107255,3.900287793,-8.408709584,6.491838304,-0.536042023,-2.610007147,0.185691054,-1.882315786,-0.654129229,-4.011634746,0.065986726,-0.638418941
-8.281489105,-6.09513922,-14.71175036,-7.341652414,-5.015104219,-0.253688551,-4.160718422,-6.457486387,0.177265427,-2.636195955,7.099326678,2.642092877,-0.439839828,3.058317911,3.659851811,-4.121510445,-2.724086582,1.715656732,-0.393210724
-8.848181742,-5.037421525,-14.31656187,-18.14161246,-3.591164849,0.886820401,-2.517709458,-4.248996403,-3.271102677,-0.059944388,5.8465689,6.041120673,4.370699984,6.827569762,7.853711412,-6.673626761,-1.329034805,3.109191477,-0.444085059
-7.702568804,-2.906442517,-10.31440236,-19.21796747,-2.152064057,1.525370832,-0.448298749,-1.861482338,-4.368750459,-0.909743925,3.205142447,7.911862383,9.183591547,9.78458851,8.173799383,-7.333221271,-0.60833546,3.80418372,-0.768261434
-5.161482924,0.413068616,-4.358237546,-12.00644907,-0.910043246,1.591673283,1.012815467,-0.007616123,-2.452919108,-3.3815144,0.506361898,7.600488797,11.05340177,10.50865133,4.493075361,-5.834838173,-0.950839052,3.702249236,-1.076320415
-2.418360755,4.223166611,0.939445398,-2.224743285,-0.09262296,1.460847191,1.418495558,0.918358986,1.570649648,-4.973606463,-0.759429704,5.756822298,8.92696134,8.828808608,-0.720923534,-2.591249642,-2.122551074,3.050436319,-1.05572132
-0.777232699,7.334838994,3.666082338,5.049255456,0.222625609,1.68220825,1.235855085,1.005082127,5.993183765,-4.146136272,0.195966142,3.671183515,4.452196474,5.965243509,-4.059620733,1.496695573,-3.423774635,2.287078684,-0.663136104
-0.821208919,8.756040792,3.650213481,8.865328251,0.197620714,2.542827903,1.371753506,0.623070413,9.326002606,-1.205770326,3.025224026,2.303663428,0.705768869,3.682758662,-3.518545373,5.222736188,-4.141266524,1.798038667,-0.213078031
-2.101936857,8.209716834,2.195398377,11.76027859,0.159623668,3.78407308,2.314179788,0.088469463,10.88656401,2.126341002,6.518034852,1.733199729,-0.156264733,3.052410929,0.167704708,7.268310632,-4.006258427,1.688336988,-0.164865748
-3.52086565,6.143004054,0.853894231,16.03245835,0.42262639,4.700087108,3.649168504,-0.470263547,10.72412473,4.083921605,9.350450017,1.367835462,1.564003447,3.742567986,4.158952096,6.538630694,-3.361162848,1.694700809,-0.758235667
-4.056894468,3.334588589,0.28246282,20.6330614,1.151303182,4.576462752,4.387719782,-0.937053457,9.200048046,4.137319447,10.76468133,0.64096426,3.583948991,4.36314048,5.596084379,2.663549844,-2.928885756,1.324451091,-1.785791448
-3.296781808,0.493649431,0.044709142,21.64504997,2.361058274,3.176923389,3.825548358,-0.968564392,6.707582976,3.257588638,10.73687574,-0.439133979,3.655228854,3.572975601,3.560796969,-3.570491312,-3.339162397,0.186976541,-2.696692536
-1.471640425,-1.855527942,-0.62401498,15.93382342,4.006952652,0.945848189,2.186748752,-0.046696766,3.733190233,3.00646024,9.61808759,-1.345078121,1.387230769,1.083885319,-0.509132474,-10.23310817,-4.718987203,-1.659755353,-2.968286677
0.862920143,-3.25384728,-1.857590748,4.599218991,6.025955945,-1.207403958,0.487664536,2.089907888,1.035204912,4.184336468,7.642367349,-1.604883054,-1.616259403,-2.18546925,-4.130918647,-14.91116424,-6.600755264,-3.584900296,-2.467651877
3.137087323,-3.242030124,-2.862349918,-7.009025581,8.253830099,-2.393261854,-0.263716526,4.971704555,-0.441198633,6.106463771,4.766154889,-1.35229152,-3.313010574,-4.852003976,-5.681874778,-15.79940002,-8.188726262,-4.618991119,-1.52976583
4.847979808,-1.547867807,-2.513078361,-12.88729682,10.29319276,-2.18584212,0.156574749,7.38280954,-0.031597727,7.097091796,0.986053375,-1.324803376,-3.033459662,-6.057236202,-5.400780863,-12.63420437,-8.80228385,-3.959166329,-0.701189154
5.517781719,1.591276996,-0.303737801,-10.56096368,11.5120129,-0.777201383,1.093372501,7.999429875,2.114182335,5.843199401,-3.164198797,-2.25635176,-1.953013656,-5.921861689,-4.810258976,-6.885596772,-8.22602795,-1.457894289,-0.356802108
4.785612202,5.305399467,3.152122675,-2.369977692,11.28404957,1.19579658,1.649013916,6.312866915,4.934947569,2.556220893,-6.447402199,-4.151239375,-1.865433215,-5.189668814,-5.181626809,-1.043340109,-6.781615324,2.2152264,-0.48297978
2.703677737,8.39356976,6.463446407,6.98949912,9.376848068,2.996269726,1.467722079,3.131417477,7.017112862,-0.999189013,-7.385522633,-6.074842375,-3.414225336,-4.469666928,-6.377904931,2.603234953,-5.117799197,5.860170325,-0.770439545
-0.019187944,9.923266826,8.343951588,14.23107282,6.21884031,4.094623725,0.976452157,0.185964974,7.480869537,-2.696323443,-5.15827737,-6.716001924,-5.404441398,-3.771683853,-7.007585979,2.987637137,-3.868597195,8.324735309,-0.906601454
-2.185674625,9.722142547,8.348909845,19.17214702,2.802049241,4.3114938,0.894436603,-0.969113271,6.522553461,-1.591581787,-0.344899319,-5.360948757,-5.838633846,-2.707246401,-5.693812475,0.555876721,-3.371275341,9.041574417,-0.812830959
-2.755400326,8.410457342,6.982314792,23.15468865,0.213923043,3.79034061,1.479202603,0.010155969,5.145819305,1.351235774,5.070566561,-2.55999628,-3.777424093,-1.109406552,-2.3633858,-3.210360716,-3.567432988,8.234908658,-0.646996479
-1.567613278,6.967019446,5.235053577,26.17947852,-0.928433593,2.864397544,2.200722425,2.057808059,4.251177125,3.936646771,8.560301034,0.042979317,-0.380022801,0.540885902,1.502736337,-6.617715791,-4.096728604,6.725642062,-0.60672915
0.454802866,6.159268479,4.006523967,25.91957822,-0.769449982,1.889689956,2.139786585,3.489805044,3.814881814,4.332781141,8.32603526,0.651782544,1.820987651,1.306330398,3.833618466,-8.420881491,-4.504645457,5.491972591,-0.731389077
1.892527255,6.21781763,3.805980441,19.84275329,-0.03538276,1.101693512,0.75819301,3.19431892,2.877595779,2.395964801,4.225796568,-1.587691306,0.837756241,0.472414332,3.361770183,-8.078497369,-4.456710206,5.233640813,-0.877570965
1.847587935,6.88416458,4.764746624,8.468702326,0.483357006,0.54787676,-1.631370699,1.33777953,0.430991344,-0.270254666,-2.207281108,-6.05730455,-3.245828872,-1.846602581,0.388948795,-5.717577529,-3.873422825,6.118533674,-0.871227586
0.618108051,7.659796356,6.712025841,-3.600841924,0.420187243,0.133790908,-4.08602348,-0.896947138,-3.481815094,-1.558216808,-8.645357237,-11.01605862,-8.367122383,-4.68027041,-3.562544492,-2.04221078,-2.946000559,7.756816408,-0.68311484
-0.540306964,8.005698274,9.132033385,-10.38708403,-0.038166964,-0.234780327,-5.72242823,-2.266726084,-7.401955944,-0.45355065,-13.18281946,-14.5595476,-12.04960402,-6.785052995,-6.822736092,1.74400117,-2.040581847,9.361576261,-0.469896106
-0.428360369,7.416944418,11.11106428,-9.005057125,-0.430329876,-0.510628226,-6.269287436,-2.342016696,-9.262672699,2.213755741,-15.15827931,-15.5734657,-13.1053363,-7.392036452,-8.516735611,4.159910714,-1.536048259,10.04203103,-0.459296066
1.094637974,5.505732566,11.54611973,-2.053548459,-0.456047816,-0.493446636,-6.051162664,-1.6586779,-7.873456788,4.400096926,-15.15911917,-14.15881967,-12.14306024,-6.58026525,-8.775920284,3.969650497,-1.661090869,9.1730652,-0.795453429
2.93862412,2.222907026,9.69899653,4.34905281,-0.225212745,0.001086045,-5.520187302,-1.135652902,-3.974759012,4.340811141,-14.33776827,-11.40548549,-10.66512367,-5.069904811,-8.275194886,0.872328284,-2.393769418,6.733539322,-1.472226391
3.612542602,-1.878661667,5.78865941,5.41824582,-0.15007447,0.895100588,-4.85244855,-1.324914449,0.004673121,1.759782906,-13.58129348,-8.774129635,-9.72876419,-3.678106754,-7.628405203,-4.095444683,-3.461210436,3.436582758,-2.371883513
2.414113238,-5.637146268,1.114503498,1.404798233,-0.599464727,1.736023473,-4.010023366,-2.122307004,1.409400469,-2.075680722,-13.09073909,-7.473753984,-9.376145224,-2.874702544,-7.120032061,-8.888340732,-4.437916083,0.495448825,-3.319694791
0.029876155,-7.740579058,-2.543272049,-2.957801665,-1.60543221,1.870138431,-3.161864497,-3.10363712,-0.971477582,-5.40082269,-12.57387837,-8.089823336,-9.177886681,-2.700115205,-6.824716163,-11.50447875,-4.904595474,-0.953171946,-4.077008172
-1.94016403,-7.483222969,-3.940537947,-2.692480067,-2.842602335,0.841159562,-2.95348006,-4.089600724,-6.207968172,-7.214268758,-11.80626378,-10.50292291,-9.144764212,-2.969530701,-6.813148095,-11.15656673,-4.608513309,-0.488246822,-4.310949449
-2.157818972,-5.300096282,-3.098800572,3.207757417,-3.865223784,-1.255794437,-4.218967118,-5.370814947,-11.96008295,-7.773365446,-11.07919171,-14.0129803,-9.964459584,-3.49424153,-7.164347206,-8.724379471,-3.565077945,1.309606571,-3.662291153
-0.495895763,-2.596751129,-1.186586165,11.13928275,-4.38872506,-3.749841751,-7.265239526,-7.366948138,-16.02354366,-8.023279182,-11.16776018,-17.58342672,-12.26111,-4.135324356,-7.805308341,-6.068435431,-2.057091638,3.186812366,-1.967320696
1.957784277,-0.873551313,0.383399012,16.10436048,-4.397310547,-5.760574826,-11.33362091,-10.03013388,-17.52254819,-8.533844247,-12.81394434,-20.15698613,-15.61861897,-4.731508924,-8.429418953,-4.620692449,-0.521411133,4.021049194,0.490622072
3.783593025,-0.720385198,0.960896228,15.70480709,-4.031471718,-6.712765663,-14.79473667,-12.55744836,-16.95907795,-8.878716354,-16.07456168,-20.98551245,-18.43723423,-5.070149888,-8.665119031,-4.288465673,0.640291824,3.584415296,2.943469218
4.251271504,-1.435864219,0.998361148,11.39904381,-3.398223276,-6.625492322,-16.05860008,-13.73312284,-15.29637628,-7.971802758,-20.00135314,-19.86920224,-18.96362279,-4.987788552,-8.374551305,-3.56533825,1.243882771,2.706653586,4.461074175
3.6868172,-1.59967005,1.490395445,6.287369063,-2.49072007,-5.967983365,-14.56514068,-12.69331807,-12.99728944,-5.051570131,-22.9303778,-17.19419024,-16.70601431,-4.507369406,-7.778517895,-0.856849582,1.399286002,2.664512191,4.499018482
2.995973644,-0.195646214,3.011837984,1.985206211,-1.277554365,-5.218222463,-11.10548551,-9.543082412,-9.853319459,-0.464726616,-23.28022094,-13.74071657,-12.97776031,-3.846303295,-7.238924952,3.95963773,1.422936848,4.19174146,3.295478386
2.858734002,2.567330031,5.17717211,-2.177981913,0.149704621,-4.49856989,-7.231603204,-5.353599355,-5.643151171,4.419825375,-20.42299411,-10.36094129,-9.986510584,-3.246603001,-6.866855472,9.013990259,1.62055374,6.828877165,1.776620837
3.310950787,5.370701017,6.977717676,-6.947585654,1.540738598,-3.587791683,-4.22309565,-1.535661197,-0.875087094,8.106560107,-15.10626718,-7.69391207,-9.143196395,-2.766530801,-6.330328653,11.52190259,2.068086257,9.130483957,0.966323616
3.992447431,6.737452314,7.695869783,-10.50262121,2.626318283,-2.276075779,-2.399158938,0.961514221,3.203368452,9.9535728,-9.135931927,-6.036954447,-9.98933395,-2.234626007,-5.087771747,9.788801627,2.541282355,9.629706444,1.289993319
4.696653753,6.061095745,7.584534179,-8.678065573,3.324884101,-0.722272633,-1.235389185,2.08486694,5.442475083,10.45750942,-4.461364555,-5.372629764,-10.66086551,-1.426357687,-2.885995383,4.656835673,2.660028075,7.877364461,2.285960848
5.602366791,3.915849721,7.678729433,1.383315436,3.826294325,0.536965031,-0.069109801,2.509977927,5.747410529,10.64811508,-2.182803334,-5.463740645,-9.51045223,-0.309059423,-0.092153848,-0.787331114,2.164923941,4.783643235,2.958757837
6.92741955,1.46340188,8.844027612,17.26890624,4.452449926,0.969172541,1.264280664,3.069284006,5.230055863,11.12681808,-2.078834354,-5.940340341,-6.519264335,0.877335006,2.456343747,-3.175778556,1.135424494,1.991803418,2.523871814
8.367642001,-0.482845839,10.85188329,31.15873214,5.38212365,0.500700415,2.375009095,4.20390982,5.293696488,11.55578488,-2.947079045,-6.377449389,-3.311644755,1.791502475,3.985749035,-1.147668452,-0.016911271,0.74062544,0.987396584
8.970582937,-1.927173288,12.31533248,34.66178118,6.453491419,-0.367396735,2.791524284,5.765360805,6.360111143,11.00623043,-3.529258328,-6.407042596,-1.787177391,2.262622856,4.261070168,3.694776839,-0.791389783,1.065580847,-0.868211965
7.740559241,-3.340265505,11.64891806,25.21127225,7.212039509,-0.920261065,2.453283627,7.198839192,7.358125941,8.849811195,-3.391134145,-5.869718821,-2.561392316,2.405945556,3.605006172,7.886139331,-0.911166186,1.930855788,-2.054719975
4.568830574,-4.88746033,8.35885803,8.627374567,7.186755276,-0.790614141,1.755614573,7.902267554,6.523251016,5.427932512,-3.14320025,-4.932415235,-4.542538596,2.462517637,2.469435947,8.479143439,-0.479362384,2.163506436,-2.040207397
0.669652681,-6.023557859,3.628977928,-4.808452015,6.202157158,-0.250742365,1.141758864,7.520250312,2.9425767,1.924595235,-3.846005901,-4.07166936,-5.965712763,2.505328113,0.97332104,5.002955011,0.135131211,1.437040498,-0.997315792
-1.998547091,-5.907710963,-0.344646388,-8.02374473,4.506947371,0.024962086,0.670948231,6.056236744,-2.433872713,-0.46901686,-6.044283062,-3.892495493,-5.947048557,2.296089113,-1.145874651,-0.364581746,0.588893528,0.519272643,0.49754789
-2.03081836,-4.317820597,-1.854180308,-2.398120539,2.638337008,-0.459913953,-0.005047999,3.823153969,-7.247773916,-1.425950906,-9.175802742,-4.866520964,-5.200975319,1.456673755,-4.099942222,-4.434841467,0.801887007,0.590929151,1.989775718
0.364510508,-2.213315175,-0.91163054,3.870267722,1.12994801,-1.589466756,-1.235513586,1.304930349,-9.406500807,-1.68780559,-11.84842628,-7.126508047,-5.32336476,-0.16504313,-7.528570102,-5.177466565,0.958659236,2.192103616,3.415794286
3.415085315,-1.307337358,0.746017019,3.067462411,0.264541479,-2.72235455,-2.936236062,-1.014941133,-8.678996726,-2.436131989,-12.82458897,-10.40045212,-7.294933182,-2.247560459,-10.4040491,-2.852377894,1.287031388,4.664116135,4.905991666
4.995307021,-2.830671973,0.937673314,-5.122587628,0.011646496,-3.232979369,-4.559717118,-2.815044904,-6.8967744,-4.326129547,-11.98005285,-14.06630216,-10.51071394,-4.098180833,-11.54051641,0.573996016,1.81538664,6.569203023,6.361115326
4.134102961,-6.421154512,-1.31147123,-12.97619587,0.141319801,-3.044211758,-5.515495012,-4.028726654,-6.525305013,-6.932255202,-10.47353035,-17.26371043,-13.15478647,-5.046568217,-10.37017028,3.086039545,2.327302417,6.78778914,7.264454049
1.686675227,-10.09239698,-4.971945167,-11.05814071,0.394177153,-2.685809623,-5.650794585,-4.807027441,-8.696897473,-9.016445767,-9.938845799,-19.04985352,-13.57631529,-4.82522518,-7.395896921,3.990823914,2.56025086,5.433403497,6.981952093
-0.343304193,-11.45026123,-7.675750841,3.638060363,0.590180792,-2.81507938,-5.335691875,-5.353103748,-12.27234485,-9.389747614,-11.27153429,-18.65265563,-11.50568894,-3.650729107,-3.958263972,4.031791188,2.475313061,3.840213171,5.33933983
-0.313873605,-9.336978811,-7.381124914,24.45824161,0.645847982,-3.603961802,-5.068085249,-5.729964729,-14.70609926,-7.711602001,-13.92737731,-15.83789121,-8.15306852,-1.982433824,-1.473356001,4.363237398,2.347119101,3.589226973,2.962667387
1.85920474,-4.690959215,-3.833752517,39.43964532,0.548941054,-4.524896115,-4.974210272,-5.789380297,-14.04976467,-4.671484423,-16.28008863,-11.24781494,-5.217711409,-0.203877095,-0.677852839,5.382381074,2.563974811,5.295566466,1.012432126
4.703488809,0.044406408,1.229602408,39.73000051,0.345031677,-4.738126867,-4.690862252,-5.293406118,-10.50639338,-1.501554817,-16.76535227,-6.426571665,-3.710842709,1.495269039,-1.364692859,6.407519403,3.278758469,8.088780229,0.433730643
6.33583484,2.555019323,5.271614303,25.43449386,0.137103407,-3.771472948,-3.759955557,-4.143706786,-6.29782479,0.752019261,-14.91863187,-3.312198374,-3.524187148,2.984216318,-2.68643172,6.390110273,4.2016592,10.21110807,1.276096043
5.840450049,2.155629207,6.673846446,4.678553583,0.05847331,-1.927355162,-2.169551832,-2.530751792,-3.951090828,1.680914802,-11.51065545,-3.296274282,-3.917831849,4.015045326,-3.704286027,4.976601709,4.73897331,10.3182222,2.631263405
3.843017579,0.103157294,5.76492656,-12.65263011,0.200306672,-0.074001775,-0.508551166,-0.868889008,-4.364399761,1.481227989,-7.739234087,-6.337772558,-4.297779674,4.26372639,-3.781737749,3.002673605,4.413643658,8.530500141,3.276765647
1.918126129,-1.423854704,4.465238939,-21.05439954,0.535529304,1.007667648,0.459463903,0.438785946,-6.175073451,0.624663385,-4.233091425,-10.74553443,-4.524388551,3.619839238,-2.666844485,2.03110061,3.263959647,6.451871104,2.56115535
1.37094036,-0.8630488,4.852339653,-20.89092775,0.911022312,1.180440307,0.450197461,1.21434113,-6.90780246,-0.426636581,-0.779945516,-13.92666511,-4.585390746,2.465966224,-0.40394798,3.32762566,1.904432095,6.115502265,0.869248336
2.355672559,1.788112562,7.682410501,-15.28411289,1.135879712,0.959116822,-0.061085294,1.527823462,-4.982353246,-1.295542055,2.960963123,-13.78167941,-4.154958136,1.618733316,2.712239602,7.052576098,1.169196468,8.57952323,-0.675992315
3.943785702,5.189414936,11.86736126,-6.37194671,1.107530993,0.989416332,-0.230643742,1.537478797,-1.014362289,-1.660121671,6.43576568,-9.932049072,-2.661564312,1.854386605,6.103620494,12.18323078,1.567526729,13.13372537,-1.039177233
4.968853184,7.705198078,15.1856062,5.286350165,0.872260369,1.463179726,0.399571259,1.327575735,2.571820241,-1.307583422,7.935989648,-3.985034158,0.086419625,3.317594319,8.958623799,17.08620267,2.92707775,17.64375719,-0.006933903
4.903321952,8.416552318,15.66037866,18.16241573,0.565065541,1.978442963,1.455428685,0.92068748,3.28798014,-0.293680436,5.622113628,1.379903494,3.337426983,5.281992703,10.50971875,20.26051698,4.47239893,19.78847719,1.688227862
4.092636507,7.419880707,12.67076771,27.60475628,0.281473634,1.959127905,2.030105509,0.453328736,0.357673641,0.983439001,-0.776051037,3.952368562,5.59097374,6.517267773,10.4454603,20.83287234,5.282412869,18.38290668,2.895547475
3.266160051,5.395990866,7.163649781,27.40927677,0.002834716,1.259742961,1.515493216,0.304448583,-4.752787673,1.98179222,-8.963797348,3.192077904,5.595202415,6.063874576,9.145033726,18.71929451,4.817194476,13.97952499,2.798621691
2.83630188,2.981353031,1.004448788,14.64424256,-0.345567391,0.415495478,0.247200838,0.96037319,-9.341856161,2.412828083,-14.86532266,0.355674286,3.39370233,3.881935175,7.474442177,14.5888403,3.179304789,8.449273426,1.358762746
2.608935367,0.486965549,-3.980645706,-6.480616099,-0.750222534,0.296979931,-0.645791209,2.627291734,-11.20799717,2.495654853,-14.9814335,-2.463035742,0.481912699,0.904706822,6.212359428,9.702797128,0.978311889,3.881647457,-0.794319559
2.111418988,-1.930078131,-6.682407124,-25.84214467,-1.023051562,1.434553253,-0.132982401,4.878964078,-9.889486094,2.759579966,-8.803583513,-3.691274773,-1.197668496,-1.546827258,5.511016428,5.544478945,-1.06398109,1.501356743,-2.847994255
1.187592108,-3.978567448,-6.873531128,-33.71251696,-0.886779635,3.561396305,1.798713491,6.691629109,-6.674187329,3.468271765,0.507555375,-3.143976088,-0.704756613,-2.570390922,4.82881803,3.202466288,-2.48695568,1.203042549,-4.273265989
0.288300216,-5.212353798,-5.014149215,-27.4814266,-0.197506247,5.750095021,3.991756483,6.967212371,-3.560571337,4.15647345,7.874148288,-1.909736374,1.165730109,-2.149824797,3.427941568,2.766869147,-3.224179513,1.881222307,-4.985026418
0.169452464,-5.320235913,-1.967907762,-13.26554045,0.872968238,7.037397947,4.922736563,5.250305448,-1.990830948,3.800073445,9.44460556,-1.449325793,2.502752946,-0.99881169,1.072585364,3.228121336,-3.46972707,2.270321638,-5.194847771
1.237605884,-4.409817935,1.253129185,-0.862499173,1.87477099,7.048439025,3.86379964,2.127103814,-2.161388269,1.653918945,5.006164894,-2.58004072,1.797566156,0.038024612,-1.62720368,3.166182479,-3.425772491,1.763894002,-5.162974689
3.103640982,-2.952214917,3.76918944,3.94274223,2.354977177,6.154801525,1.478265559,-1.036034075,-3.199821122,-1.857785717,-2.024894289,-5.003793063,-0.83802077,0.550315796,-3.529177545,1.900472246,-3.125889664,0.746294042,-5.04684647
4.75252719,-1.397825033,5.166495678,3.40080016,2.18285889,5.092862111,-0.640472021,-2.896141657,-3.934020798,-5.038076794,-7.04087979,-7.603531319,-3.725967506,0.698969804,-3.725926931,0.231823668,-2.443468641,0.271768627,-4.887747785
5.240498525,0.165892803,5.7187257,4.863277717,1.666159646,4.39167868,-1.139671397,-2.951871949,-3.721285906,-5.930927711,-7.391687635,-9.223280306,-4.903544029,0.893971651,-2.201438054,0.021861901,-1.25710553,1.297134429,-4.65168528
4.395697825,1.938331275,6.227872338,13.46577159,1.338174691,4.069531653,0.119188974,-1.813492423,-2.891307068,-3.850939289,-4.041630516,-9.394604876,-3.618045477,1.327646326,0.112375871,2.70381639,0.354655219,3.931718675,-4.249054954
2.973900561,3.92665735,7.411002439,26.70505362,1.550149158,3.790521185,2.02074472,-0.741123249,-2.611027925,-0.232864092,-0.635152402,-8.583175066,-0.884134268,1.750351803,1.921593413,7.790965403,2.031324511,7.179266638,-3.548671173
2.126958071,5.518867085,9.166312079,35.57902015,2.17233898,3.277782523,3.078870993,-0.78293803,-4.23654714,2.060346863,-0.740934514,-7.865107128,1.273486355,1.650930366,2.373503523,12.68107144,3.23789363,9.384704077,-2.446607698
2.562899282,5.619207309,10.31332887,31.44139145,2.64507808,2.593967887,2.522341299,-2.113547047,-8.431409975,0.694552388,-5.29746171,-8.26823067,1.249524362,0.681943492,1.517309367,14.19210339,3.529082164,9.179845107,-0.988353861
4.015266229,3.413337867,9.195689184,12.99545221,2.364536583,2.058203447,0.754464402,-4.004485201,-14.49134853,-4.284153314,-12.03514922,-10.16177631,-1.128631215,-1.004302419,0.139561652,10.87344088,2.833561279,6.378440378,0.55547351
5.417944732,-0.768067617,4.905666887,-12.16489482,1.132167052,1.908218398,-1.096982194,-5.394881856,-20.33346855,-10.19157776,-17.15147811,-13.01801093,-4.665961042,-2.76183534,-0.855540679,4.340083323,1.576272152,2.235161745,1.770520509
5.668467123,-5.244663896,-1.706782282,-32.52113337,-0.657508924,2.03401145,-2.099504671,-5.621678521,-23.35411624,-13.43913136,-17.92004155,-15.66692359,-7.732559089,-3.802833999,-1.064005359,-1.563339338,0.514800613,-1.171606245,2.330564437
4.435425633,-7.793037309,-8.108210218,-40.01606619,-2.225887343,2.029166775,-2.14864106,-4.801154785,-21.85017706,-12.11403525,-14.375178,-16.91744317,-9.268311116,-3.668525563,-0.799848845,-3.354082625,0.324645472,-2.124177521,2.224017951
2.43102004,-7.043572817,-11.42402865,-34.25787827,-2.865089389,1.51771642,-1.8633734,-3.643198299,-16.21328436,-7.479503219,-9.029859942,-16.22355176,-9.177241315,-2.524544922,-0.826055253,-0.413480166,1.152160143,-0.305397839,1.785635549
0.946923259,-3.507645231,-10.27271797,-20.99217178,-2.325219124,0.478052393,-1.922547021,-2.887442774,-9.050059819,-3.157091046,-5.043333188,-14.0223998,-8.031638245,-1.099054401,-1.823341077,4.509886955,2.435024655,2.978808143,1.479687052
0.968757564,0.567144486,-5.813776393,-6.995068217,-0.89595594,-0.702563921,-2.440070033,-2.78211329,-3.941207255,-2.481393868,-4.247360178,-11.51936072,-6.524375431,-0.289226628,-3.933533357,7.258540616,3.173182906,5.57119275,1.58253968
2.478607726,2.527310088,-1.154703293,4.114389741,0.819394981,-1.4768892,-2.875384713,-2.948601575,-3.448754405,-5.974312238,-6.319845976,-10.00232632,-5.140533497,-0.645976905,-6.610239496,5.272759254,2.550007453,5.763679052,2.00506413
4.426014583,0.989128179,0.611459147,12.27502296,2.236520614,-1.481908033,-2.493321837,-2.683279661,-7.588458875,-10.89004597,-9.407377333,-10.07374875,-4.154610591,-2.021281117,-8.815442209,-0.591675954,0.52886875,3.307586455,2.390114865
5.390875172,-3.262258362,-1.559416112,18.41940386,3.006974227,-0.718850094,-0.954274929,-1.46410793,-13.79225362,-13.24975771,-11.48699118,-11.28398077,-3.720292684,-3.593667459,-9.449979821,-6.768496994,-2.00202671,-0.497872844,2.400995734
4.494116395,-7.761951984,-5.985122688,22.08202273,3.042488745,0.529265457,1.429796576,0.670662578,-18.44151867,-10.86223663,-11.44850663,-12.42606745,-3.826170403,-4.298068995,-7.842180677,-9.613156873,-3.707602736,-3.664846933,1.968786662
1.952512955,-9.916701369,-9.44646823,21.4642816,2.434811173,1.924304844,3.91404623,3.093031315,-18.99522896,-5.022328932,-9.347883243,-12.32191991,-4.169607377,-3.455280268,-4.111168208,-7.93582492,-3.652830274,-4.742670988,1.313497374
-1.074638235,-8.59512033,-9.424789688,15.46624982,1.400654793,3.239318122,5.775764021,4.905091471,-15.34099515,0.437274585,-6.002498177,-10.58246066,-4.200727136,-1.2454893,0.756815235,-3.587194942,-1.966439377,-3.629578689,0.74944167
-3.21690061,-4.748731366,-5.811066954,5.322538863,0.285594812,4.357093333,6.644943954,5.415383131,-9.565097418,2.028291453,-2.461045132,-7.826058561,-3.460835128,1.289223384,5.208608516,0.162523738,0.160701996,-1.508834761,0.456089674
-3.693992723,-0.73385157,-0.895714971,-5.848283021,-0.456359308,5.164915671,6.533390558,4.506648473,-4.447786485,-0.790890062,0.299789229,-5.215604861,-2.000208111,2.778377675,7.741350958,1.031396102,1.196251199,-0.034414938,0.399042492
-2.66234796,1.155948043,2.303170281,-15.00924638,-0.399957826,5.495132199,5.661775031,2.696419872,-1.814759836,-5.285893558,1.50368644,-3.661844642,-0.474377931,2.320491203,7.590852533,-0.941341825,0.256450395,-0.334369791,0.433430067
-0.927287679,-0.001433182,2.131758875,-20.66521868,0.621522761,5.195394759,4.300302997,0.856022626,-1.828653729,-7.60925521,0.755054552,-3.273486839,0.272879961,0.064192477,5.138985148,-3.948025435,-2.297667595,-2.431236559,0.461738182
0.707860119,-3.357726539,-0.677844345,-22.56003657,2.348840704,4.271144348,2.73037201,-0.262383312,-3.489689574,-5.749147655,-1.699054033,-3.431308686,-0.126149106,-2.81858076,1.774820104,-6.092969536,-5.072113989,-5.341389136,0.493117648
1.953540609,-6.930507492,-3.707981788,-20.39212663,4.154260264,2.962131306,1.254810859,-0.428666882,-5.714005636,-0.993510908,-4.892761024,-3.380031757,-1.202621172,-4.79352207,-0.777771861,-6.681544586,-6.524324113,-7.686948655,0.570472696
3.052885176,-8.790708479,-4.664187187,-13.42218642,5.33993126,1.664893888,0.130380279,-0.034475977,-8.062075287,3.145827586,-7.527502594,-2.846759044,-1.954812458,-4.868561197,-1.334767381,-6.189511792,-5.923774945,-8.414714685,0.669222562
4.356831223,-8.081212792,-2.935601356,-1.788658169,5.504172344,0.742678613,-0.585676091,0.171600518,-10.65108467,3.610046295,-8.727353069,-2.207504252,-1.630504728,-3.172706432,0.151742378,-5.278200796,-3.75161405,-7.257552198,0.69228737
5.847938303,-5.346971237,0.160017652,11.78455885,4.732792332,0.356130925,-1.131999498,-0.447712352,-13.54168039,-0.04873021,-8.645525275,-2.110937505,-0.366428748,-0.839699167,2.618712104,-4.01476387,-1.305753099,-4.784557702,0.574502841
7.026086268,-2.097154579,2.480319558,22.11504875,3.490502859,0.42719347,-1.93065205,-2.038122654,-16.29026035,-5.618440186,-8.370777697,-2.906108285,0.862606698,0.718669683,4.526593349,-2.081118026,0.173061636,-2.093745472,0.382886652
7.258215374,0.078418406,2.587181038,24.27653323,2.30427975,0.742111238,-3.281005335,-4.1925897,-18.1130221,-10.13402791,-9.071135914,-4.352036635,0.980720451,0.668681016,4.735753964,0.353839042,0.240145289,-0.311886694,0.289264635
6.304543459,0.339416456,0.587957976,17.05287468,1.472486421,1.101871212,-5.070659045,-6.221436582,-18.49557775,-12.07764809,-10.96420124,-5.818732792,-0.341634887,-0.803727155,3.123253706,2.166867907,-0.614596719,-0.096473396,0.415610623
4.580796108,-1.043739314,-2.18597199,4.126785002,0.989736028,1.414161084,-6.747820073,-7.543594394,-17.66542164,-12.12516395,-12.94803587,-6.764041999,-2.407557787,-2.705770798,0.603934318,1.931529646,-1.436900405,-1.330455819,0.691601998
2.925095831,-2.945819994,-4.242865308,-8.341585802,0.693006448,1.685866624,-7.618724405,-7.92852674,-16.47246087,-12.01523963,-13.2859091,-7.055301255,-3.998094787,-3.901970717,-1.423348967,-0.731346405,-1.483259002,-3.158421809,0.876578388
2.040473219,-4.087923641,-4.858789104,-15.93360989,0.468307584,1.953631657,-7.278472541,-7.462322011,-15.75036487,-12.68813393,-10.91043037,-6.875497914,-4.243656854,-3.760070238,-1.854983889,-4.354749146,-0.619675028,-4.393223455,0.757966832
2.050467444,-3.780543164,-4.254658848,-18.44496178,0.342355086,2.22055707,-5.867577035,-6.337711119,-15.6817477,-13.35867827,-6.364264431,-6.348476378,-3.168793553,-2.386281025,-0.429769881,-6.317006422,0.763463097,-4.131039762,0.367051009
2.514598793,-2.280854977,-3.083427165,-18.54399671,0.415042215,2.441096704,-3.970483952,-4.688247036,-15.68399047,-12.28607482,-1.610010441,-5.280721355,-1.517282826,-0.385869661,2.248154263,-4.700954868,2.148695951,-2.253495612,0.012437672
2.873602721,-0.554321841,-1.796930289,-18.04262535,0.735329596,2.550875917,-2.238197276,-2.606901879,-14.90043574,-8.50920288,1.206482132,-3.310074225,-0.067117378,1.596491059,5.172714727,0.116456102,3.240899144,0.492385107,0.072239535
2.940953603,0.407745608,-0.430087162,-15.50440851,1.25275063,2.512251592,-1.01313729,-0.290554635,-12.90434978,-3.007534755,1.134220261,-0.364123594,0.966498784,3.214489574,7.556047606,5.515130615,4.025874835,2.91658342,0.693698434
3.022425436,0.270545113,1.12233794,-7.733541679,1.8746814,2.347569351,-0.212460565,1.879696491,-10.08424597,1.731597466,-1.087928528,2.993248785,1.974753561,4.458867203,9.200833736,8.420230266,4.581396443,4.071088726,1.641939372
3.562794896,-0.423421804,2.711103568,6.058693029,2.537742028,2.143557085,0.482768087,3.454044298,-7.452522551,3.404455205,-3.748933341,5.708625253,3.482141443,5.471004855,10.40879212,7.489284823,4.885063173,3.773708996,2.430442249
4.626948715,-0.656377162,3.8551163,21.48023382,3.187931371,2.019752915,1.308797842,4.162810119,-6.047260686,1.483464392,-5.471626821,6.864404949,5.612675041,6.341350283,11.54038483,3.992979439,4.823250532,2.649030214,2.642171628
5.678535831,0.31107405,4.079554472,30.78270841,3.676562604,2.066404235,2.218963556,4.090244246,-6.342893205,-2.510679336,-6.045734795,6.338690755,7.944086335,7.046674669,12.59101455,0.727352516,4.384216524,1.691864851,2.19962461
5.884581291,2.365780069,3.362683854,28.40185771,3.704444939,2.279443839,2.935671894,3.611190521,-8.010830099,-6.166679884,-6.162311667,4.965095183,9.817240118,7.519629171,13.1349876,-0.117193127,3.82497818,1.671778766,1.388462576
4.736248895,4.564265844,2.270246645,15.64419337,2.945745493,2.53871976,3.192888195,3.132520475,-10.10247167,-7.769745556,-6.367730412,4.010524214,10.78195481,7.733365102,12.70354688,1.594428857,3.608870433,2.767577917,0.637862612
2.496596861,5.747865698,1.618224711,0.192266557,1.32843597,2.663249084,2.978212403,2.855614843,-11.49418341,-7.114950402,-6.219858566,4.320922808,10.80420824,7.70699116,11.30535747,4.252536029,4.111461682,4.612566856,0.241432641
0.103295691,5.323739452,1.90508457,-9.617394605,-0.733985806,2.525216156,2.597783169,2.752888337,-11.36344755,-5.123512521,-4.457113116,5.768591825,10.13838737,7.447887891,9.644184163,6.142312554,5.31151459,6.626528233,0.221674344
-1.420154296,3.670814931,2.953078351,-11.11269619,-2.398421365,2.146591827,2.513919018,2.744490456,-9.519083205,-2.848151634,-0.120698652,7.42611826,9.083063582,6.925502303,8.785843147,6.909258031,6.729088873,8.349042974,0.400998829
-1.602274459,1.905666237,4.038544083,-8.757261197,-2.794139722,1.695039343,3.051028548,2.86412729,-6.485242738,-0.819043703,6.276963165,8.337339177,7.888967731,6.140591768,9.453619776,7.605661764,7.697109169,9.569695372,0.577349619
-0.734099441,1.1946573,4.414276712,-9.368632807,-1.555326417,1.363749563,4.145858671,3.211921022,-3.301728819,0.828731645,12.56007104,8.285357923,6.854638616,5.244713447,11.46256942,9.386667405,7.791766558,10.26320115,0.650398823
0.476030843,2.087649837,3.836377672,-15.18933207,0.877261332,1.218841449,5.299906274,3.715428016,-1.089525065,1.831509114,15.96910047,7.948022111,6.393371932,4.583477484,13.75317629,12.11715365,7.110068101,10.47927896,0.627058142
1.488763398,4.280049345,2.719306038,-21.0165014,3.426659069,1.141249778,5.789511367,3.95271071,-0.555316596,1.610194838,14.81606209,8.303475731,6.860894841,4.568575098,15.05381261,14.19064599,6.183868524,10.30272276,0.554423701
2.272209376,6.873144789,1.827082304,-18.24427457,4.946242437,0.925131087,5.048447627,3.295822532,-1.69325662,-0.270357516,9.552873888,9.74310581,8.205832566,5.415497714,14.70850899,13.75287766,5.58699267,9.864033276,0.470604664
3.136417503,8.877870661,1.73835219,-2.63566929,4.827062513,0.462633952,3.023626761,1.366650987,-3.871558594,-3.430814817,2.511271822,11.6018726,9.770469884,6.914287352,13.05421642,10.2712011,5.523220114,9.308637519,0.407703341
4.246971587,9.626110306,2.461396964,20.81983512,3.262836789,-0.142287654,0.285742148,-1.523500268,-6.254862174,-6.549136204,-3.465447635,12.51868101,10.53434173,8.419469143,11.07128731,5.095617111,5.700968143,8.701879284,0.405501444
5.276461241,8.922032238,3.446154635,40.35919048,1.035005676,-0.642462611,-2.209934651,-4.353933877,-8.2678528,-8.086735246,-6.529230768,11.40760375,9.73984844,9.121973763,9.609421677,0.545611412,5.58887609,7.970594522,0.487129038
5.533683771,6.991334673,3.959530235,45.49070052,-0.9904491,-0.855075883,-3.611154174,-5.915622212,-9.766161169,-7.373966363,-6.511944784,8.334034299,7.46607994,8.476337221,8.8342392,-1.684959646,4.861354021,7.000076969,0.612150057
4.49730867,4.370970314,3.55845684,34.20364791,-2.297135933,-0.830701848,-3.624928866,-5.558571817,-10.81618484,-5.144943981,-4.516644024,4.626773758,4.678070499,6.531452287,8.343143232,-1.491348885,3.696505989,5.860251716,0.675917461
2.319865893,1.797011629,2.353803609,13.68871713,-2.832532946,-0.820564969,-2.648147709,-3.624468461,-11.32093759,-3.007756791,-1.922824408,2.10282874,2.652010463,3.946805765,7.807717342,-0.007255029,2.691246769,4.953172874,0.591960168
-0.136781788,0.034842445,0.910941884,-5.558874759,-2.821197377,-1.047066981,-1.471085054,-1.22254617,-10.87267476,-2.225801178,0.409799531,1.933307101,2.171879199,1.659094012,7.513462187,1.57323328,2.43772662,4.85807509,0.397352355
-1.81203997,-0.394608622,-0.133164687,-16.98523171,-2.502952197,-1.46795459,-0.742385336,0.503900807,-9.017830723,-2.789468575,2.301291938,3.946629307,3.090145193,0.38483204,8.227706735,2.865656161,3.059037566,5.873912231,0.263954182
-2.144657991,0.496670996,-0.486416112,-20.70882553,-2.015040001,-1.757455681,-0.564529158,1.082932449,-5.738066469,-3.530925566,3.92136506,6.844497452,4.563671003,0.258447755,10.42015987,4.136349537,4.044882992,7.563073449,0.362175636
-1.440511234,2.062088119,-0.389423258,-20.3785953,-1.454615498,-1.558861134,-0.50853268,0.8854601,-1.720412373,-3.162376693,5.423307734,9.13566971,5.740809251,0.829057903,13.49551794,5.432911303,4.524773151,8.705784833,0.669935184
-0.636677459,3.247714123,-0.457350717,-18.13478436,-0.980121068,-0.821634203,-0.033433331,0.687069932,1.867742797,-1.353901965,6.836910789,10.07783237,6.331789062,1.411219353,15.80053261,5.998083798,3.809537166,7.836216554,0.908815312
-0.639871141,3.072521343,-1.27188395,-12.91133284,-0.79391823,0.068262729,1.01062248,1.017395042,3.973987727,1.03232794,8.138954859,9.946695167,6.625739614,1.550432033,15.58763913,4.655675462,1.839513197,4.094305725,0.712570161
-1.72173337,1.087156826,-2.974786232,-3.49190903,-0.993311425,0.514345953,2.187025357,1.821565078,4.183151656,2.686555758,9.235808727,9.495705269,7.003572139,1.284659764,12.29484501,0.878921361,-0.762338623,-2.162312598,-0.069542291
-3.384867798,-2.458922697,-5.116149074,7.396283659,-1.435197596,0.151633917,2.74379079,2.649274143,2.782622136,2.881110687,9.768374548,9.10336933,7.417900465,1.024623944,7.133048177,-4.465222049,-3.063401057,-9.424104416,-1.184541354
-4.745825996,-6.796080793,-6.853936461,13.04332493,-1.776039105,-0.836247407,2.147686633,3.123325281,0.37381165,1.899728451,8.965112575,8.332019912,7.314370234,1.150491443,2.42124585,-9.471232191,-4.361789882,-15.74818722,-2.095930156
-5.113390302,-10.97021991,-7.384033387,7.963272104,-1.702345955,-1.79764323,0.470002159,3.226114145,-2.603543123,0.561970285,5.851884432,6.264981411,6.063603707,1.637159324,0.068908513,-12.44373643,-4.531856953,-19.65090773,-2.357362618
-4.347685897,-14.0900511,-6.343469433,-6.056369184,-1.187721522,-2.063673654,-1.67435206,3.15301999,-6.055563617,-0.654358953,-0.164703484,2.335701626,3.517805743,2.0089116,0.310361588,-13.00355301,-3.964783138,-20.60927497,-1.948000134
-2.806510525,-15.40783581,-3.963128561,-19.26717911,-0.564920892,-1.444503671,-3.586805272,2.909907082,-10.08209033,-2.078039512,-8.742144202,-3.057782866,0.192683966,1.679193509,1.65126408,-12.10947704,-3.187183103,-18.94589208,-1.273815133
-1.012879766,-14.36847765,-0.919252887,-20.63154268,-0.336008355,-0.395669197,-4.99254833,2.081081967,-14.78367843,-4.514310601,-18.60089329,-8.697731443,-3.105767985,0.426190382,2.071555502,-11.00506097,-2.459109538,-15.34527491,-0.801998274
0.653127208,-10.79207723,1.98502673,-7.045540507,-0.851550031,0.27640545,-6.220112366,0.035150039,-20.3222088,-8.484892859,-28.24400286,-13.37311274,-5.917846427,-1.373568148,0.559035764,-10.05056364,-1.641201228,-10.46280089,-0.618265104
2.031180428,-5.153161635,4.114421748,12.86972127,-2.096129642,-0.047703062,-7.943638741,-3.584279058,-27.18094552,-13.76987869,-36.97473354,-16.73323348,-8.513632523,-2.966366659,-2.198884156,-8.486412496,-0.397680995,-4.886754523,-0.294853685
3.060013769,1.316423931,5.159141765,24.53580976,-3.732676885,-1.41245133,-10.71171414,-8.527394076,-36.23705411,-19.65046176,-45.47101335,-19.468417,-11.7112253,-3.760563854,-4.461340072,-5.313725515,1.456230773,0.687207528,0.780108982
3.655512957,6.973020736,5.169654691,18.81200714,-5.353555942,-3.311991676,-14.62200257,-14.09281419,-48.33154116,-25.5595576,-55.43968116,-22.65921996,-16.269702,-3.780901983,-4.861826827,-0.450779583,3.749807706,5.427553708,2.853980252
3.739069044,10.51308722,4.534534896,-0.247642654,-6.731756423,-5.067645367,-19.34684148,-19.65831326,-63.50695593,-31.46426597,-68.54547546,-26.82833789,-22.32036621,-3.673156553,-3.477101595,4.931240151,6.049632777,8.673256863,5.498887171
3.38176202,11.69396779,3.911306904,-18.13676901,-7.884123498,-6.246780737,-24.41917469,-25.11493291,-80.54475202,-37.5941684,-85.3539927,-31.49055333,-29.24343353,-4.227938751,-1.72935284,9.236018405,7.956085566,10.37164728,7.830605935
2.889495963,11.4742051,4.046710008,-21.42228318,-8.926043394,-6.822189175,-29.50173839,-30.78546239,-97.36822406,-43.80947616,-104.9974526,-35.58609594,-36.03252495,-5.770577183,-1.262017663,11.69667819,9.348164899,11.21421777,9.118970482
2.693062475,11.3680397,5.452888867,-8.731499485,-9.867994476,-7.011546154,-34.42584462,-36.85815844,-112.2156565,-49.30749861,-125.6956189,-38.42653604,-41.82932196,-7.884322804,-2.711721161,12.90514843,10.37425525,12.21995646,9.311761658
3.088878375,12.394113,8.055882677,8.06497369,-10.53904897,-6.992506713,-39.02093767,-42.82909888,-124.7459147,-53.07787288,-145.6259321,-40.31916836,-46.23661845,-9.687827635,-5.308551087,14.1085752,11.20696985,13.98570056,9.040591121
4.031817928,14.36231559,11.06990285,13.72137621,-10.70187658,-6.753175336,-42.94704729,-47.50250692,-136.1106066,-54.77803431,-163.4615271,-42.28415494,-49.25424002,-10.45946802,-7.525093884,15.89957046,11.78512811,16.17031893,9.089788474
5.163305268,16.05127657,13.30196101,2.429293547,-10.25800526,-6.180822732,-45.72892806,-49.66545128,-147.7546955,-55.20786055,-178.298029,-45.06017666,-51.00195655,-10.12989392,-8.184171612,17.52104546,11.78494768,17.6700057,9.753390718
6.071672527,16.18081525,13.81895981,-17.19695599,-9.369992636,-5.270881711,-46.99898046,-48.97496675,-159.7803071,-55.82527978,-189.2839665,-48.25346924,-51.52852197,-9.270733647,-7.170373682,17.49595019,10.87671101,17.42421837,10.6076277
6.584220782,14.46573895,12.59078235,-29.24196315,-8.399962074,-4.246933402,-46.7619666,-46.36014042,-170.2227548,-57.58577224,-195.5170743,-50.43167415,-50.86994645,-8.608582228,-5.310964693,15.10155796,9.08069109,15.27652508,10.89139567
6.853712494,11.94561871,10.63402035,-23.74227295,-7.71052223,-3.482297485,-45.46345152,-43.56750883,-176.0106997,-60.06560424,-196.4576013,-50.19347656,-49.25937922,-8.465062931,-3.671380787,11.3884796,6.932911731,12.23353214,10.18548158
7.165179535,10.31514501,9.459489132,-4.836624261,-7.470995389,-3.295380658,-43.79238895,-42.12105017,-175.0713187,-61.68959693,-192.5384857,-47.38178725,-47.23982309,-8.56557898,-2.875140907,8.747440566,5.293831073,9.901491042,8.82755522
7.62163682,10.73265039,10.11771885,13.0839939,-7.590174893,-3.786781814,-42.34398358,-42.41797091,-168.0284553,-60.97966312,-185.3577666,-43.4017358,-45.51032878,-8.343806004,-2.882471909,9.229858284,4.890386958,9.49260542,7.707218277
7.976943874,12.97843418,12.4762086,17.82191856,-7.791936532,-4.825120262,-41.35559853,-43.58237137,-158.106719,-57.8255355,-177.1111957,-40.28384533,-44.56664001,-7.46327846,-3.208250256,12.91577148,5.879866401,11.09882993,7.586332791
7.775603214,15.56941154,15.25809403,9.589172759,-7.758109891,-6.148809063,-40.65619405,-44.13748301,-149.1604299,-53.67517043,-169.5424451,-39.17222594,-44.38200816,-6.117774706,-3.271198491,17.6609057,7.718123558,13.70523795,8.476286648
6.714871322,16.72961815,16.85813925,0.096813461,-7.251217046,-7.47202061,-39.81929918,-42.98122913,-143.2046401,-50.40180852,-163.1168231,-39.44670594,-44.36720363,-4.880618377,-2.639024062,20.49483549,9.416888508,15.86363147,9.565123738
4.958017192,15.51691187,16.39355354,1.328211049,-6.183437581,-8.528132938,-38.40348563,-39.99434766,-139.2655249,-48.73644447,-156.9840739,-39.22382221,-43.66325591,-4.258894183,-1.176380371,19.65530613,10.03405155,16.51453741,9.761941579
3.148560914,12.35162469,14.26791123,13.93948694,-4.648300269,-9.085736992,-36.15942572,-35.952438,-134.3974194,-47.58814566,-149.7031622,-36.86857294,-41.60015159,-4.338741145,0.811782798,15.77125461,9.120103725,15.43820643,8.459158966
2.09020469,8.6737843,11.87170848,25.79174774,-2.928506288,-9.00997274,-33.14051957,-31.93923542,-126.0701376,-44.89613863,-140.1612585,-32.30332444,-38.05389528,-4.796236745,2.510007901,11.39095672,6.901769874,13.16827958,5.967245805
2.301175674,6.061167028,10.65551149,22.43142238,-1.454606393,-8.369431712,-29.7034875,-28.74953282,-114.1037044,-39.39268885,-128.0727988,-27.04866301,-33.50804929,-5.21218402,2.827337742,9.289254758,4.150149815,10.57995298,3.3409062
3.739924961,5.419344742,11.23089273,0.755363175,-0.677040077,-7.485763312,-26.40022696,-26.64840543,-100.7235686,-31.85381842,-113.8860497,-22.97640549,-28.80852345,-5.376401608,1.035299947,10.7869692,1.833419148,8.478175502,1.757148225
5.869832282,6.670821681,13.0808534,-26.19817988,-0.865919437,-6.815791766,-23.77522363,-25.49397359,-88.79722526,-24.76970096,-98.4221183,-20.82980145,-24.76879835,-5.317684835,-2.510485625,15.13141857,0.718537592,7.35390499,1.880606592
7.988431931,8.960581904,14.98544533,-38.30146437,-1.935690945,-6.68369663,-22.1277924,-24.96954242,-79.70211578,-20.61901747,-82.67492498,-19.75400324,-21.84215963,-5.085870175,-6.190672197,20.11012107,1.070955262,7.277497849,3.58664985
9.576128412,11.11448237,15.7784525,-24.49110492,-3.424701912,-7.040573484,-21.35302228,-24.69911319,-72.48276731,-20.0675406,-67.85789811,-18.20674652,-20.01087788,-4.55938485,-7.890621725,23.27776428,2.55425079,7.865408193,6.117081636
10.44055929,12.09204931,14.90765661,7.174119462,-4.689189713,-7.460646776,-20.97249434,-24.24244685,-64.86972405,-21.49724607,-55.37877511,-15.42435224,-18.9047764,-3.517538192,-6.401617108,23.02201036,4.376816231,8.368372264,8.477186211
10.61390165,11.33542454,12.52489348,34.30846671,-5.229204348,-7.424923528,-20.36860917,-23.12686623,-55.26413633,-22.22987576,-46.40477312,-12.13607198,-18.03912727,-1.932885974,-2.47283599,19.08852052,5.655349215,7.982651038,9.824259172
10.15109533,9.000580352,9.217882877,36.69568782,-4.95357479,-6.705920652,-19.0965404,-21.01531446,-44.10351183,-20.48021832,-41.11319904,-9.883794281,-17.02185318,-0.180883626,1.425474421,12.61351738,5.858160512,6.338045889,9.715398672
9.030432804,5.992535595,5.689052319,11.70048884,-4.206594635,-5.555234098,-17.07844594,-17.9152047,-33.59828276,-16.52767187,-38.20264162,-9.549835882,-15.63665593,1.104248758,2.683355146,5.798057244,5.104336991,3.870795829,8.211757359
7.243675643,3.663987513,2.581573682,-23.57748088,-3.525834643,-4.526422222,-14.55956538,-14.2228219,-26.1298084,-12.25204435,-35.25404946,-10.42965315,-13.81495488,1.479775147,0.427501777,1.211928044,4.115650321,1.720810063,5.860924576
4.983142876,3.163924293,0.420881462,-45.13659127,-3.281815727,-4.052543757,-11.88024732,-10.50702706,-22.57168789,-9.487466612,-29.9542371,-10.73750905,-11.58532444,1.081874192,-3.752666506,0.730414695,3.790121141,1.066990672,3.53346926
2.736582124,4.720411997,-0.465776614,-39.81111814,-3.436388774,-4.10841169,-9.252631751,-7.17183074,-21.73286699,-8.548409388,-21.45823734,-9.162113457,-9.076361241,0.57255169,-6.914016512,4.453962613,4.614381371,2.276088734,2.095391065
1.163714217,7.347595379,-0.083891334,-14.16803121,-3.581614592,-4.23708932,-6.710445213,-4.26977582,-21.18621584,-8.076786845,-10.91766781,-6.105524434,-6.560137626,0.620181461,-6.972572642,10.32122851,6.284905688,4.497855515,2.009146317
0.799066561,9.309773417,1.172947366,11.90056038,-3.233059988,-3.93481139,-4.240925537,-1.623587851,-18.74889204,-6.257957701,-0.728517543,-3.441422759,-4.441194517,1.31269641,-4.339406822,14.9812293,7.821956942,6.104688616,3.080242536
1.768520032,9.170378557,2.690182631,21.19100268,-2.179357969,-3.095127182,-1.948906115,0.858171898,-13.56651139,-2.367707508,7.010017159,-2.896720014,-3.109505868,2.015363914,-1.650337996,15.70051219,8.151681435,5.759419121,4.550688793
3.710666454,6.761868206,3.973875426,11.88751552,-0.651184323,-2.154034775,-0.085387085,2.967214006,-6.23378138,2.600621228,11.7313549,-4.41388623,-2.696563078,1.849816999,-1.719607841,12.16939247,6.799499299,3.371320361,5.536098235
5.956607987,3.36701538,4.911001216,-2.708172254,0.80700179,-1.807279029,1.090709474,4.294726877,1.85043605,6.694369646,14.47822496,-5.969163299,-2.906320074,0.444681256,-5.279854391,6.859758182,4.229564399,0.220372035,5.545538021
7.848303369,0.917954169,5.705059092,-6.35677684,1.681249245,-2.506060148,1.488044187,4.570534879,9.271225629,8.49561859,16.87199972,-5.134057392,-3.102754949,-1.659978271,-10.29805832,3.451639314,1.584406454,-1.874287006,4.732283095
8.994310403,0.741679635,6.51403511,6.410419034,1.822484291,-4.108883943,1.233513602,3.940060357,15.04773907,8.149915331,19.86347885,-1.150545783,-2.672334747,-3.327316312,-13.4460036,4.265074431,-0.012856544,-1.745339357,3.704267604
9.326403418,2.739689394,7.116495758,26.04405241,1.547328951,-5.941791753,0.56268944,2.917650243,18.69795642,7.144871248,23.24459393,4.240829075,-1.446248044,-3.649606355,-12.59928808,8.507999828,-0.126533357,0.434728893,3.050844244
8.973226842,5.572528032,6.959179495,36.05934985,1.429855606,-7.205713497,-0.323433617,2.038349791,20.16019708,7.065325171,26.19541508,8.012185737,0.139466264,-2.639072847,-8.416518234,12.69294408,0.794864801,3.422727744,2.953023839
8.088398581,7.657635538,5.620742683,26.40168384,1.909230229,-7.42277298,-1.27568399,1.505458785,19.76550314,8.342685357,28.25803453,8.192063015,1.321423048,-1.220387888,-3.784942941,13.02653365,1.795261061,5.837121043,3.158916975
6.773412518,8.1880495,3.31779136,1.294581705,2.964075836,-6.619737411,-2.066957442,1.14609393,18.23199369,9.983530943,29.82035254,5.438769706,1.575232813,-0.515296254,-1.61634003,8.092790101,2.063493579,6.986284996,3.294573719
5.130328862,7.424361429,0.963765953,-24.23315137,4.072905182,-5.177778437,-2.275524109,0.718156831,16.54038524,10.46703165,31.69829979,2.524928598,1.066364647,-0.983101764,-2.757288305,-0.098041741,1.398958407,7.000004216,3.208980711
3.358715927,6.15222715,-0.375513266,-35.71946424,4.504547313,-3.528101156,-1.377143008,0.292500956,15.65518658,9.082622567,34.25359227,2.127317697,0.621776102,-2.096748001,-5.614833424,-7.419717468,0.20641692,6.313223104,3.052666165
1.774204197,4.883692516,-0.252905147,-29.24315813,3.768890618,-1.943578128,0.931768953,0.349776097,16.22943513,6.643627688,36.91445922,4.727650381,1.199810833,-2.794799124,-7.663016824,-10.29801213,-0.897696601,5.088444599,3.053677406
0.69822137,3.531745452,0.802541374,-12.5745785,1.943729389,-0.537832521,4.401728166,1.466937068,18.46293841,4.997641319,38.59818663,8.340681223,3.226829274,-2.321557685,-7.495765101,-7.821233772,-1.521120073,3.137413874,3.238682147
0.285917807,1.791715782,1.697978776,2.373601215,-0.339653454,0.616884151,8.194361564,3.827344693,22.14122314,5.677889073,38.69978723,10.25727983,6.291683644,-0.773068453,-5.750477242,-1.934922497,-1.656244041,0.366777925,3.389268555
0.422914933,-0.224224703,1.676026103,8.882490502,-2.253922395,1.422075251,11.26133772,6.961250704,26.73384971,8.705153194,37.76113514,9.308696228,9.425426221,1.058709027,-4.268486471,4.133523273,-1.515777598,-2.764868596,3.284182111
0.778394885,-1.806449474,0.959001083,8.963491864,-3.250496701,1.811627296,12.92500535,9.955813943,31.44954372,12.46437898,37.17267916,6.74754015,11.74218601,2.354903376,-4.354125108,7.855828909,-1.26193849,-5.326255397,2.980797946
0.987040142,-2.204971314,0.547935054,9.013898165,-3.343279871,1.855445954,13.2497798,12.00041904,35.30646853,14.80362778,38.09289312,5.044387289,12.94361877,2.856986851,-5.677631994,8.397015222,-0.895938579,-6.568046817,2.821329792
0.837856165,-1.475586891,1.276195436,12.26994479,-3.020686645,1.765555882,12.91768643,12.86275388,37.37245638,14.59527483,40.47419724,5.682536091,13.32200506,2.896243528,-6.710828537,6.26086767,-0.384353912,-6.602780706,3.095927667
0.348082951,-0.791902282,2.889449356,15.12406077,-2.862593107,1.756170521,12.69202575,12.94482846,37.20158976,12.61926895,43.03451244,7.870827995,13.32539414,2.908553891,-6.213721719,2.338217792,0.144423426,-6.44633805,3.645384701
-0.308211943,-1.764676649,3.986428469,10.64796713,-3.144050495,1.86552924,12.87547634,12.89701602,35.2254332,11.06926891,44.23678113,9.276500318,13.10753927,2.930488259,-4.40675325,-2.625353268,0.374551127,-7.261555833,3.810680395
-0.940565365,-5.153180969,2.997666792,-3.826542395,-3.707638535,1.910808087,13.1730945,13.10246174,32.72981046,11.95857819,43.49303376,8.122093534,12.46744642,2.563611771,-2.799529446,-7.809696793,0.027569238,-9.35196278,2.883747317
-1.437804367,-9.967708361,-0.495250519,-21.96994061,-4.175856566,1.647533937,13.04451191,13.42214796,31.26175751,15.53222379,41.61728268,4.812107324,11.20752701,1.442413413,-2.859027451,-11.90402674,-0.833934535,-11.74141464,0.767419077
-1.761097984,-13.7869952,-5.162123515,-31.34885401,-4.310887757,1.023008176,12.23759975,13.36836932,31.75295098,19.86287592,40.17530724,1.668386859,9.542166285,-0.240953307,-4.707188949,-13.2796516,-1.707983535,-12.75952658,-1.704366789
-1.872185791,-14.22659627,-8.619324573,-22.46565735,-4.217345954,0.311143726,11.05965923,12.5436575,33.94521977,22.02159597,40.28507979,0.992571735,8.130201187,-1.678386269,-6.979232505,-10.9113018,-1.905353055,-11.24989105,-3.144991323
-1.686634761,-10.57608521,-8.992129985,2.899490456,-4.217573043,-0.008325044,10.16930912,11.00061227,36.55786124,20.08699388,41.84324702,3.118604181,7.645570577,-1.973356418,-7.942530494,-5.349917466,-1.010884421,-7.489644348,-2.521394749
-1.108588399,-4.416201379,-6.205414189,30.94941564,-4.507258779,0.435586142,10.06674853,9.263061919,38.10977376,14.59178177,43.75166038,6.123964328,8.237458543,-0.843051539,-6.898253706,1.196237613,0.783876162,-3.103083622,0.04143535
-0.119140433,1.273925572,-2.025808345,44.17054092,-4.896815358,1.619484191,10.69304834,8.007311754,37.81457115,8.325346855,44.86182235,7.43930999,9.363224471,1.102190956,-4.690314938,5.970870882,2.748236906,-0.021887596,3.187008568
1.165894479,3.924954489,1.185056018,33.20335322,-4.890963741,3.082868401,11.43946684,7.631155807,35.91915651,4.544630567,44.78687453,5.972557429,10.16860143,2.767739749,-2.954288453,7.274851052,4.060911284,0.7301675,5.115186283
2.528753733,2.860488258,2.064762532,3.749747797,-4.084534751,4.170494084,11.52889835,7.991123331,33.30372157,4.80382086,43.91995779,2.941526644,10.10563558,3.366040316,-2.807428234,5.405158968,4.328913224,-0.454643203,4.725160665
3.749620757,-0.516028531,1.000728317,-26.77520835,-2.573038467,4.402200578,10.45979779,8.464068782,30.73140926,7.935753089,42.74563548,0.737450768,9.259193229,2.963094967,-4.082291268,2.248288608,3.804708473,-2.27276973,2.321499021
4.685851958,-3.85005366,-0.473711488,-40.83631253,-1.0269814,3.733740968,8.212910072,8.294714716,28.3584375,10.92251601,41.16289066,0.832235745,8.112667,2.356278843,-5.646738411,-0.116566253,3.150709829,-3.559801396,-0.613759867
5.261903437,-5.399681928,-1.083235816,-32.55458534,-0.317897957,2.560458815,5.165993954,7.040731397,25.83209484,11.03046743,38.50243657,2.538582865,7.002175924,2.412622572,-6.391388035,-0.72714351,2.935749138,-4.063080618,-2.416956578
5.39307052,-4.95419788,-0.857103436,-11.29469328,-0.935089996,1.489845648,1.89471114,4.878264074,22.79471872,7.664057227,34.26559534,3.667354975,5.810778382,3.426402756,-5.97124961,-0.048659513,3.241365066,-4.41405361,-2.302999972
4.94711159,-3.605907954,-0.990532628,5.534125926,-2.616612545,1.038435882,-0.949110727,2.587562037,19.32557003,2.620339416,28.92769627,2.4841927,4.23846442,5.002609743,-4.750401516,0.766498769,3.661797096,-5.438827774,-0.767389748
3.832820606,-2.727432742,-2.67489974,5.306845176,-4.479468908,1.418035808,-2.675302991,1.182327789,15.99825746,-1.358330447,24.04308129,-0.730721692,2.417043817,6.50018104,-3.206144418,0.922616396,3.677414506,-7.416823772,0.895733124
2.18742368,-2.987698361,-5.888991798,-10.62913285,-5.569993971,2.490148651,-2.665075782,1.33817633,13.61059777,-2.564133805,21.45661064,-3.844011316,1.236791463,7.596000262,-1.511589456,0.482912969,3.101763708,-9.842205043,1.556767112
0.506880004,-4.057960832,-9.170190082,-28.09632022,-5.446115551,3.867335334,-0.654263121,2.931825188,12.87297638,-1.325601491,22.17836542,-4.586919648,1.923661484,8.464825692,0.284013553,0.078640612,2.257049051,-11.78109753,0.992202206
-0.453556573,-5.052932978,-10.58952433,-30.76591626,-4.388441839,5.088784337,2.945797035,5.008649422,14.23660912,0.635662991,25.77256497,-2.35650092,5.062871664,9.452104863,1.781317742,0.265543624,1.748053087,-12.47093351,-0.079050245
-0.040348782,-5.234460041,-9.181978427,-12.59849941,-3.123720545,5.798063159,7.002866457,6.286796605,17.78742794,1.825872419,30.70674041,1.395034246,9.851450988,10.59221703,2.158884231,1.154398316,2.010175329,-11.71578275,-0.610010889
1.858005586,-4.434606603,-5.708352636,17.08375835,-2.302002967,5.87009438,10.09950905,5.959530544,23.05966276,2.171224099,35.35417176,4.439500404,14.32108285,11.46415022,0.823305767,2.540301526,2.972236182,-9.887605249,0.007528226
4.595286206,-2.990099261,-2.13902377,39.69818165,-2.119564826,5.448884338,11.29107257,4.296420645,28.84623228,2.821382121,38.86917627,5.575586463,16.55109412,11.55567013,-1.712449572,4.225896736,4.081939709,-7.662918043,1.566459307
6.988693787,-1.383183911,-0.241669537,40.33209635,-2.321847456,4.876147501,10.69733835,2.594036436,33.34006176,4.837183899,41.32881229,5.43877165,16.04217267,10.81635751,-3.658552343,6.10397816,4.670460651,-5.73637556,3.26155647
7.915019415,0.062793864,-0.346231747,18.17508843,-2.504356943,4.530758877,9.458820528,2.420796531,34.85589116,7.998823701,43.17203795,5.724732239,14.17031322,9.867186614,-2.964014088,7.92320935,4.389701026,-4.632929821,4.269101561
6.944579486,1.23669887,-1.219089462,-13.00827461,-2.421060369,4.650303214,9.005595001,4.599706053,32.89017717,10.84229371,44.51832611,7.60081528,13.26733046,9.606288403,1.060379715,9.096515007,3.417233509,-4.582517098,4.247089836
4.606038567,2.106604523,-1.124429033,-34.50930297,-2.065770099,5.229632336,10.10504893,8.608615141,28.77716335,11.92661626,44.97423989,10.70747273,14.93377832,10.48422556,6.820067438,8.940675888,2.30647084,-5.408702529,3.442902067
2.087004882,2.598724647,0.751681887,-35.2529786,-1.534209757,6.05496924,12.35875729,12.83566129,25.23664069,11.21394384,44.06334626,13.54851454,18.83840764,12.05229034,11.17969975,7.290820848,1.617049256,-6.499852789,2.418504019
0.540849556,2.614707164,3.602229226,-18.30191809,-0.871171971,6.849230463,14.51725121,15.54518799,24.83138955,10.29445378,41.87011057,14.82697493,22.93922284,13.20936803,11.56654673,4.947463613,1.600587516,-6.998688492,1.659121208
0.437923989,2.146916774,5.54889255,2.898275034,-0.084013068,7.432460976,15.38501516,15.90476478,28.26692542,11.16082767,39.31772594,14.507283,24.98587,13.0128472,7.936391881,3.407581915,2.145997821,-6.228461944,1.349773574
1.373394396,1.354868424,5.014427033,15.00489948,0.702609357,7.796033542,14.65315744,14.38255756,33.78469475,14.50560523,37.80514693,13.710767,24.16807644,11.43660447,3.026931613,3.896566554,2.974771829,-4.143493383,1.416551556
2.433318176,0.510289179,1.879600105,13.79459256,1.15628178,8.054827461,13.06215605,12.28719244,38.2282594,18.97601452,38.42655556,13.62470428,21.65579632,9.463603528,0.539337571,6.387392433,3.890924642,-1.4743157,1.713437307
2.841589079,-0.158879136,-2.43355627,5.282430248,0.884739248,8.326060749,11.8084394,10.83837381,39.12517977,22.05464819,41.29221458,14.44527178,19.63846012,8.405298429,2.494689368,9.441201751,4.872190072,0.608694208,2.158335181
2.432989295,-0.608015801,-5.987488311,-0.95156612,-0.233601547,8.623539149,11.66568253,10.45513909,36.29773617,21.88088576,45.37877374,15.26899426,19.6332883,8.945907947,7.72468029,11.1228109,5.942704632,1.147795991,2.716963162
1.646764126,-0.992418973,-7.664038345,-0.149729503,-1.811001833,8.830194823,12.47073234,10.71628598,31.81683653,18.54521049,48.98572509,14.95558368,21.37710682,10.63194478,12.6606811,10.37343199,6.963367318,-0.054830031,3.294683483
1.096148451,-1.540674409,-7.794185063,4.374266933,-3.066433188,8.752433444,13.3115627,10.89658994,28.36857791,13.84891266,50.53672344,13.14345879,23.12496061,12.19010782,13.86497097,7.794410336,7.55512218,-2.361204151,3.681217888
1.072021295,-2.359121539,-7.633287643,5.249633686,-3.292590845,8.217046282,13.22009071,10.56785939,27.3236034,9.822296707,49.32547654,10.53912351,23.06410046,12.42989994,10.43659149,5.206386999,7.267878167,-4.723364167,3.637719245
1.360657427,-3.291547696,-8.142727899,-1.657213449,-2.359333068,7.166172284,11.83358626,9.792068801,27.98772056,7.305217101,45.86844612,8.310371596,20.70805574,11.06158302,4.541006853,4.296536727,5.903068549,-6.292078738,3.0768859
1.489302686,-3.943185831,-9.091693618,-13.10491981,-0.857392534,5.719278706,9.575187639,8.847999582,28.51026524,5.746544527,41.6966579,7.198218696,17.21137467,8.851587789,-0.250195939,5.387822052,3.752414065,-6.80168457,2.186695534
1.171591633,-3.900108046,-9.248918731,-20.92301658,0.268868003,4.177319266,7.300726095,7.839097147,27.57143865,4.231998369,38.63169482,7.120254998,14.4364336,7.049255425,-1.499679134,7.26729017,1.547594424,-6.543913776,1.372940661
0.574860868,-3.054813849,-7.560704941,-18.76789725,0.35757579,2.945629793,5.732298588,6.582154106,25.39419429,2.645296194,37.82648895,7.491515104,13.56776941,6.540224806,0.553512432,8.172354807,0.108679832,-6.062126457,1.029042681
0.18728881,-1.840437529,-4.374567717,-7.396521191,-0.531877477,2.376243907,5.082825443,4.862216448,23.29293757,1.802554418,39.04678431,7.812361537,14.35084481,7.327537399,3.466987694,7.133916491,-0.106132728,-5.84830145,1.280800246
0.396568806,-1.163912348,-1.638173094,5.845806003,-1.705250998,2.587837673,5.065264099,2.772883153,22.27734105,2.427566151,40.67342423,7.914368825,15.462777,8.644217178,4.551475544,4.629909963,0.732583191,-6.21898001,1.889469331
1.134270073,-1.971533725,-1.734346733,12.63265933,-2.37169676,3.374019708,5.189343637,0.784862269,22.03318448,4.006748758,40.58976255,7.719407299,15.61617061,9.530561888,2.759919052,2.08512095,1.911533124,-7.329069956,2.396116443
1.893860819,-4.6337871,-5.689511954,9.546324746,-2.215269115,4.29341372,5.101620647,-0.543101918,21.21781886,4.773601212,37.56277564,6.940223044,14.48992803,9.428638568,-0.815502361,0.672294203,2.560942477,-9.175650691,2.422394824
2.128588031,-8.535049467,-12.08915789,-0.394987512,-1.569440739,4.924597039,4.778372773,-0.947770902,18.79908194,3.07438364,32.27569679,5.224173236,12.8261433,8.42388278,-3.990404986,0.392378369,2.110974813,-11.52972225,1.928333429
1.718315614,-12.21332439,-17.63806428,-11.18217985,-1.091877814,5.130614476,4.524073331,-0.586204974,15.21525382,-0.974395194,27.22442729,2.722544025,11.75259785,7.074318489,-5.100566517,0.153303668,0.567653218,-13.89020908,1.250825226
1.120288166,-14.07489072,-19.14055785,-18.65653957,-1.232102387,5.1311822,4.823626326,0.197967938,12.28048134,-5.075012047,25.35279188,0.484595646,11.9621738,6.038588628,-3.954688199,-1.232114684,-1.513137181,-15.59451528,0.893573904
1.056360603,-13.29535406,-15.58705984,-22.47202033,-1.925701555,5.297043828,6.11060552,1.217034707,11.86504643,-6.186676302,28.19357701,0.068190681,13.37338976,5.762562376,-1.599290499,-3.912283319,-3.300502755,-16.08826498,1.207538098
1.95757497,-10.32292573,-8.859904293,-24.0560857,-2.730504518,5.79860507,8.51270573,2.538367141,14.4570358,-2.832374593,34.74835306,2.433646108,15.40198248,6.344530286,0.668334439,-6.602296219,-4.052265336,-15.18648277,2.172432933
3.594060618,-6.615172345,-2.503028476,-23.35075573,-3.238977936,6.389312477,11.67401808,4.240869549,18.81209448,3.568118207,41.94782502,6.959764826,17.46925694,7.544722778,2.153650651,-7.258397711,-3.408254744,-13.13244007,3.416508236
5.192073129,-3.75533279,0.6133399,-18.10991816,-3.384039885,6.53728495,14.78977019,6.096167666,22.94821598,9.513317799,46.47619081,11.52665542,19.27742857,8.868479695,2.918486152,-4.396674926,-1.520660685,-10.42025104,4.4490209
5.969511752,-2.538888484,0.089814483,-6.746448992,-3.38088333,5.8539804,16.92646726,7.555271891,25.59721332,11.84982691,46.7605295,13.83279941,20.70801326,9.712905252,3.355432252,1.804216214,1.002814341,-7.543461887,4.943870688
5.692487589,-2.644728658,-1.99585433,8.137537659,-3.394667241,4.502167782,17.51567518,8.142187931,26.89061371,9.950437566,43.77350165,13.05090289,21.59045119,9.600668043,3.729109292,9.336515964,3.322934208,-4.870570038,4.894812174
4.82916358,-3.069923853,-2.807432508,19.57760592,-3.280678674,3.227534268,16.72453526,7.9281263,27.79800631,5.954439824,40.13348283,10.51044581,21.67478464,8.453694012,4.092227242,15.27486706,4.698960154,-2.690538872,4.564153058
4.181228265,-2.942480155,-0.871218489,20.63765778,-2.678026161,2.916240869,15.40515729,7.601771415,28.95358382,2.951493779,38.20769323,8.766095742,20.87507665,6.744633372,4.514545934,17.26969293,4.8080512,-1.280425454,4.28589006
4.27621812,-2.076712966,2.967535856,10.17072291,-1.402999953,3.95748226,14.57734461,7.960249453,29.99346808,2.640189468,38.6099779,9.684305903,19.51926944,5.349730092,5.248144956,14.79077354,3.897520788,-0.828858537,4.262700714
4.99161889,-0.894777291,6.381071266,-5.130229468,0.219635355,5.88540194,14.75219328,9.183793936,29.97593002,4.345904705,40.11825613,13.01037367,18.28349837,5.089813887,6.568593023,9.418653658,2.652822418,-1.235927913,4.472973397
5.703905089,0.119068056,7.439688841,-14.83342903,1.444428104,7.607065881,15.57506237,10.5341893,28.41362135,6.064812197,40.91982274,16.5435391,17.76897057,6.194643888,8.41838021,3.995088544,1.808266666,-2.011464368,4.716043827
5.846102679,0.89634826,6.044169875,-12.31953444,1.629514824,8.094777634,16.07717299,10.83131543,25.88653284,6.472477375,40.1089022,17.78681779,18.03439192,8.054485855,10.23131918,1.077271908,1.706971116,-2.476559214,4.743924272
5.432880425,1.769114181,3.858118387,0.142235696,0.814074896,7.056963855,15.38122888,9.40553314,23.62970034,6.075950493,38.26526431,15.77409482,18.48677874,9.487508053,11.18281799,1.558385031,2.094605815,-2.207265525,4.402080865
