Channel 1 - P4,Channel 2 - O2,Channel 3 - P8,Channel 4 - T8,Channel 5 - C4,Channel 6 - Cz,Channel 7 - Fz,Channel 8 - F4,Channel 9 - Fp2,Channel 10 - F8,Channel 11 - Fp1,Channel 12 - F7,Channel 13 - F3,Channel 14 - C3,Channel 15 - T7,Channel 16 - P7,Channel 17 - P3,Channel 18 - O1,Channel 19 - Pz
32.70225624,22.08778113,29.98409729,8.092692494,29.89239133,29.73369177,20.7125676,28.04724072,22.0366198,23.647403,20.02108189,20.85381052,23.80504296,28.4336565,21.35910215,22.30971932,30.46444403,30.84107296,25.88256398
31.49534654,18.89879979,25.22026284,2.879654681,20.88548716,25.16175321,11.17821601,16.71157632,14.08248221,12.56801303,13.35973833,15.77232121,16.49478237,26.78576289,19.15684097,19.45244441,32.53563453,33.98830836,20.3173315
21.96413411,7.741996024,10.79009669,-1.342612521,4.819453304,13.37771568,-2.725080149,0.564400706,2.249483043,-2.742810366,2.683126057,3.063426959,3.163939694,15.69063615,8.481558102,7.875854002,20.38249149,23.74438394,7.383873962
9.839699931,-4.4965252,-4.749161817,-2.507733044,-9.232841421,1.330237097,-13.29144591,-11.60741289,-6.104289867,-13.54245364,-5.715009865,-9.991920656,-8.551300104,2.098119069,-3.18564628,-4.811495649,1.565519457,6.966919494,-5.445901398
1.703315058,-10.7697241,-12.68419975,-1.285644879,-14.03552133,-4.615700878,-15.30511146,-13.95860184,-6.589708483,-14.24762075,-7.203454333,-15.79115833,-12.41918408,-6.256943312,-8.415916652,-10.94888551,-12.95005601,-6.059297927,-11.423377
0.599976613,-8.616644075,-10.03662541,0.275103365,-8.883133137,-2.754934168,-9.484063159,-7.466262264,-0.517735372,-6.173580583,-2.055325452,-11.62318225,-7.775696771,-5.976089162,-5.08301189,-7.855581686,-16.12064249,-8.615866329,-8.820891422
4.516662842,-1.383485446,-1.086719478,1.362379595,0.529900619,3.426066801,-1.583290569,1.205688252,6.570637094,3.716047358,4.894244727,-1.444969495,0.402082593,0.28412713,2.686567236,0.881792637,-8.976133264,-1.642793954,-1.400284934
8.610433802,4.746531699,6.353613371,3.446403168,6.722262186,8.38155732,2.030285683,4.893811218,9.211208407,8.044535333,7.899086257,7.071297079,5.399801937,6.460958765,8.213805381,8.499352875,1.122701095,7.816331011,4.947640542
9.164253683,5.399700713,6.795057934,8.476311971,5.83922411,8.701371867,-1.110875819,1.127271483,5.784411537,4.226000844,4.453546223,7.957136186,3.566071931,7.773211146,7.391608505,9.951596746,6.364769809,12.24253429,6.555979906
6.093679694,0.759123274,0.550811589,15.88665302,-0.187426114,5.185597624,-8.312315791,-6.591889063,-0.955440444,-4.237442452,-3.180134351,0.804570669,-3.55540667,3.823480504,1.225961897,4.980243816,3.873960525,8.889974745,4.024695532
2.253579166,-5.394287676,-7.463334809,21.54187743,-6.020067016,1.503294319,-14.36908956,-12.14519492,-6.605910055,-11.08639543,-10.07401261,-9.604306309,-11.060288,-1.944608314,-5.792871656,-2.553938908,-3.213270265,0.893605819,0.76068375
0.50273057,-9.136632379,-12.11250325,20.18949724,-7.542128542,0.866726915,-15.76604304,-11.87063242,-8.638981375,-12.37208017,-12.54427182,-17.24121376,-14.68469948,-5.507744556,-9.649417234,-8.032665679,-9.170710298,-6.037777307,-0.342824046
1.199900864,-9.354157362,-11.84046599,9.719652035,-4.907765029,3.529835302,-13.06708042,-7.250853373,-7.912067554,-9.185939805,-10.7590244,-19.09431068,-13.71539133,-5.363662028,-9.658091987,-9.275776387,-10.39890285,-8.253406738,0.813153666
2.191848035,-7.959197641,-9.046318615,-6.417646002,-1.793010467,6.972251935,-9.837914483,-3.251165479,-7.241473373,-6.081196679,-8.133868506,-16.58928224,-10.75330162,-3.107591552,-8.127102695,-7.296005476,-7.665852648,-6.401769814,2.003685582
1.075967373,-7.603647129,-7.290438616,-20.96308536,-1.864334606,8.303277212,-9.322638683,-3.940102303,-8.551348518,-6.792885759,-8.225783646,-13.52448089,-8.967612719,-1.442620457,-7.632820899,-4.575751591,-4.537463113,-3.915830013,1.149802526
-2.410972433,-9.138245598,-8.093756434,-27.54900923,-5.629730703,6.690606111,-11.76791754,-9.117848009,-11.10969388,-10.95729386,-11.73825703,-12.6319897,-9.385467203,-1.653817887,-8.588843752,-2.74928214,-3.859082969,-3.542659444,-1.571875588
-6.006158022,-11.01145305,-10.03155197,-24.54928942,-10.23608093,3.825234724,-14.50512526,-14.64204245,-12.23646976,-14.50694905,-15.98399147,-13.6658483,-10.42365402,-2.739055881,-9.196171442,-1.686086365,-5.464334511,-5.067591837,-3.829678201
-6.822934614,-10.91631953,-10.51690722,-15.05550466,-12.1219041,2.238006428,-14.47618396,-15.97559631,-9.708247358,-13.24952714,-17.07286906,-14.30189255,-9.766069183,-2.712884823,-7.537382309,-0.42722528,-6.853101626,-5.99607216,-3.255698325
-3.833771629,-8.02715491,-8.315806633,-3.447965327,-10.06640479,3.071220175,-10.91510015,-11.87968195,-3.737803636,-6.521883939,-12.96471976,-12.66724535,-6.712587287,-0.674509866,-3.689343769,1.26952224,-5.86492405,-4.245878117,0.355804616
1.211892494,-3.797009561,-4.464240496,7.963665005,-6.037665002,5.21361213,-5.949813034,-5.235276406,3.087441802,2.128767116,-5.013512611,-9.115755356,-2.900544674,2.290239479,0.119639645,2.39984838,-2.771606765,-0.261007404,4.700995428
5.166258849,-0.700538565,-0.988327907,19.05956199,-3.29023691,6.405259911,-2.770652741,-0.50220721,7.732889962,7.715591779,3.016607055,-5.799182537,-0.868146968,4.103847813,1.386081547,1.691699806,0.028223086,3.316090065,6.746769583
5.923521229,-0.150234642,1.082834813,29.00703129,-3.524561689,5.226672715,-3.038004904,-0.100040719,8.836184854,7.664905171,7.498755409,-4.650852245,-1.826051438,3.581203465,-0.522978148,-0.918853191,0.265576103,3.993490688,5.105803668
3.872334396,-1.458474622,2.403230924,33.83708439,-5.585796372,2.242941607,-5.695938503,-2.722205912,7.344804804,3.605481041,7.0731255,-5.723969685,-4.601803196,1.468553881,-3.879215618,-3.820731996,-2.135366856,1.616336809,1.040519816
1.271604619,-2.682894691,4.106901544,27.91381259,-6.699614637,-0.575060048,-8.036133418,-4.801315118,5.36086335,-0.223353345,2.98279641,-7.333150434,-6.610904026,-0.251078332,-6.122872335,-4.8516933,-5.028866947,-1.544113438,-2.642735386
0.266504661,-2.488460836,6.04833683,9.028538759,-5.014947767,-1.524426365,-7.955157163,-3.672664041,4.354901526,-0.468340727,-2.234663337,-7.721288251,-5.949800593,-0.100448944,-5.984291742,-3.122083007,-5.991738535,-2.808806552,-3.786928449
1.315035131,-1.317269077,6.392805663,-17.17664476,-1.19182179,-0.465126248,-5.482246669,0.29805046,4.265630433,2.838390737,-6.423387967,-6.632629091,-2.828756663,1.668013327,-4.338947577,0.044512583,-4.432522181,-1.386793002,-2.345416352
3.252473078,-0.86401824,3.156933948,-38.21394652,2.261969841,1.277459662,-2.443418782,4.283245149,4.063934946,6.666955291,-8.645868635,-5.378004942,0.763986485,3.39646871,-3.168953189,1.939424211,-1.994272088,1.04596399,-0.045311098
4.678796815,-2.404585382,-3.640524188,-41.89330654,3.19284071,2.159396066,-0.763241414,5.552645625,3.053892659,7.699476874,-8.941853389,-5.440816972,2.739518793,3.524330123,-3.701293575,0.477397507,-0.966887315,1.912088105,1.257347018
5.241844147,-5.513563575,-11.28676153,-24.91571177,1.563693793,1.651729317,-0.95175606,3.726226607,1.653782541,5.001051966,-7.667247015,-6.999599738,2.456880791,1.909046312,-5.422479101,-4.189318766,-2.192374435,0.00909903,1.041636809
5.658102275,-8.299735036,-16.0017109,3.796092593,-0.689095433,0.454490689,-1.97502359,0.876997803,1.011687073,0.550057519,-5.166669196,-8.743554408,0.943469833,-0.144644399,-6.744887757,-9.708484776,-4.335946639,-3.476357064,0.247223373
6.617216265,-8.918152922,-15.66518021,28.24280887,-1.436924863,-0.329778483,-2.40645245,-0.403707282,1.913247846,-2.558297473,-1.929654274,-9.099144244,-0.189035804,-1.067889076,-6.55651222,-13.15403256,-5.125519575,-6.015729576,0.155032983
7.789190994,-7.030964652,-11.36956636,35.68406434,-0.13160524,-0.200430568,-1.70111067,0.827878206,4.025234097,-2.561720497,1.215767483,-7.674138977,-0.059837915,-0.315925221,-5.156384845,-12.96756485,-3.412497974,-5.859255397,1.143884245
8.000255125,-4.01020978,-6.474675638,24.6555984,1.93866011,0.454797497,-0.490789934,3.30093558,6.129937398,-0.153545917,3.323515971,-5.564147639,1.025991866,1.334114854,-3.771364002,-9.799023386,-0.225250531,-3.400689188,2.404202984
6.445762076,-1.817759272,-3.976150237,4.81803092,2.986417096,0.934933382,0.210812484,4.867268617,7.081025579,2.389493492,3.895941114,-4.265419604,2.176611724,2.613464286,-3.241004244,-5.783979609,2.076535726,-0.715809688,2.734752212
3.728401832,-1.598572605,-4.421533054,-10.88494959,2.341691036,1.014209564,0.036195503,4.406205501,6.6161892,3.079713133,3.267721605,-4.248817312,2.836310708,2.870694851,-3.215590237,-2.994772587,1.764669657,0.190831761,1.598230905
1.596043948,-3.137244292,-6.05848539,-15.40729951,0.897694087,1.171855383,-0.435295861,2.616234876,5.382352186,1.485280407,2.368612808,-4.556708223,3.15585087,2.464280992,-2.65391288,-2.287319546,-0.888101819,-1.128901343,-0.511525686
1.45992935,-5.447693894,-6.88779918,-11.11721355,0.086707782,2.083417992,-0.306732565,1.146639487,4.27892987,-1.428483353,1.990539378,-3.816644911,3.589244285,2.1943814,-1.103637095,-3.251376344,-3.957498014,-3.529775851,-2.61714791
2.990622189,-7.761392895,-6.634396826,-5.621751658,0.427147868,3.901689626,0.736563331,1.020748939,3.777001944,-4.393116647,2.171418335,-1.72801723,4.256466159,2.425602448,0.543695176,-5.007258047,-5.540800597,-5.521482029,-4.109039891
4.15607821,-9.956138874,-6.823827581,-4.201904446,1.008950822,6.023054348,2.103964086,1.823765414,3.761094525,-6.734432887,2.237184002,0.393063962,4.762716813,2.768289315,0.653982556,-7.009692372,-5.260258619,-6.567957172,-5.095117589
2.849472481,-12.14871365,-8.974543731,-5.557545883,0.362769282,7.54762851,2.809504986,2.29680536,3.860186015,-8.405689794,1.466137448,0.592172565,4.629254395,2.575004839,-1.65894245,-9.220327307,-4.349275471,-7.304766743,-6.003980181
-1.197288129,-14.04420611,-12.70839623,-4.202510936,-2.121510244,7.990630352,2.301402603,1.646258726,3.795658992,-9.452581642,-0.214245888,-2.025359172,3.845605746,1.697122853,-5.518798316,-11.69223788,-4.372911142,-8.622827062,-6.927796541
-5.892383095,-14.84842322,-15.69218852,3.16128507,-5.534913266,7.597189471,0.857071512,0.281045679,3.384832203,-9.692936963,-2.111695619,-6.365214007,2.93851116,0.712731442,-8.75558422,-14.11885261,-5.800449621,-10.59262259,-7.400206687
-8.232532722,-13.93064274,-15.62830559,13.36721865,-8.134131253,7.015111647,-0.751915606,-0.678982703,2.324463539,-8.999351795,-3.326215468,-10.03616537,2.460139058,0.381860161,-9.554063568,-15.83200768,-7.679740393,-12.26753732,-6.831995736
-6.627381512,-11.60262136,-12.54271199,18.63099753,-8.736514724,6.682601013,-1.939389134,-0.575421697,0.187825504,-7.790945562,-3.481701583,-11.12031943,2.406738948,0.864159559,-7.89923088,-16.24278831,-8.605836402,-12.52304792,-5.161264797
-2.204386553,-9.174787535,-9.190388733,12.99128321,-7.584183905,6.521407643,-2.67785429,0.117936496,-3.152538969,-7.019606703,-3.000704583,-9.554072589,2.179439171,1.490759244,-5.571083697,-15.30220796,-8.023918167,-11.11983733,-3.060738751
2.012408496,-8.085505196,-8.971910965,-2.302780773,-5.958165432,6.193727501,-3.271298231,0.301197877,-7.004322671,-7.428019543,-2.710702014,-7.000213403,1.183360156,1.364560555,-4.680022072,-13.57543345,-6.677822494,-9.004748597,-1.474126399
3.415988403,-8.789595557,-12.98851961,-19.20107946,-4.95916999,5.623236378,-3.830292617,-0.539781075,-9.846310174,-8.676522439,-3.146770529,-5.385640067,-0.477062444,0.258444547,-5.979591174,-11.89692169,-5.857738278,-7.595704839,-0.900940469
1.759421306,-10.3922601,-18.77328979,-28.75531193,-4.581263993,5.232718648,-4.014559351,-1.590577711,-10.09917176,-9.241344408,-4.140109709,-5.379274386,-1.889801131,-1.045895337,-8.354044088,-10.92209687,-6.20448636,-7.721983765,-1.092217728
-0.817925899,-11.40974463,-21.9494523,-27.49900932,-3.876511629,5.636987693,-3.313040972,-1.214163007,-7.228509445,-7.404523211,-4.991235655,-6.056248336,-1.98670348,-1.358270188,-9.839929771,-10.91104803,-7.191903255,-9.160090593,-1.429381368
-1.639890032,-11.04793619,-19.61866075,-19.01992002,-1.987115226,7.06459399,-1.591394849,1.648530461,-2.304365753,-2.664941743,-5.020164503,-5.914660156,-0.426324645,-0.139057757,-9.242496444,-11.81007332,-7.738623854,-11.1074203,-1.608838243
0.340451021,-9.902984096,-12.75020188,-9.762899074,0.944212068,9.05353571,0.624887997,6.378882645,2.535052839,3.590500697,-4.019573665,-4.261175972,2.062785778,1.919466011,-6.979228087,-13.43390611,-7.340740646,-13.05895323,-1.962868128
3.810129804,-9.456409717,-5.564522095,-3.136992261,3.810284796,10.72221953,2.413747525,10.86525858,5.399359925,8.806697035,-2.303621904,-1.752361617,4.199145454,3.346294665,-4.543378275,-15.53654889,-6.639777147,-15.21272991,-3.091543672
6.304333288,-10.76564241,-2.321041752,2.696864304,5.446277331,11.39276245,3.045164636,12.87827186,5.750946841,10.90151108,-0.431938491,0.291917833,5.101932627,3.042033943,-3.194989242,-17.75747562,-6.866029472,-18.020374,-5.141192064
6.25516303,-13.44687128,-4.038366021,11.50673415,5.546447503,11.03081268,2.397757735,11.54961698,4.447197981,9.581626722,1.081989294,1.087927321,4.883619286,1.169808774,-3.069981367,-19.60238512,-8.634678609,-21.34139211,-7.423789044
4.167653539,-15.81115018,-7.748188253,23.4532972,4.768106127,10.14767916,0.896151163,7.812119061,2.743894126,6.332457342,1.870416427,0.992877765,4.40901045,-0.964244488,-3.393529941,-20.58136561,-11.18165453,-24.06639514,-8.786799938
2.036239313,-16.06016941,-8.86536175,32.81850552,3.990105685,9.304061998,-0.892048105,3.553693363,1.155112943,3.153064268,1.678273856,1.018146862,4.471733255,-1.939508265,-3.431783545,-20.43836091,-12.76562164,-24.67200612,-8.466552497
1.61561524,-13.59604195,-4.806134448,31.66530339,3.476947138,8.694521599,-2.593134754,0.277221285,-0.83272075,1.099679456,0.386459725,1.763727169,5.117408154,-1.300635219,-3.203542992,-19.28201372,-11.95617547,-22.32777266,-6.705337162
3.048329003,-9.451130386,2.933160769,16.71573343,2.751073839,8.171259658,-4.034224697,-1.643264596,-3.965639006,-0.210105686,-1.847655179,2.777812693,5.670909701,0.183281156,-3.315509489,-17.50840188,-8.761184462,-17.65211076,-4.59755454
4.931481724,-5.588228719,9.751316299,-6.476134204,1.267647985,7.618592952,-5.030287978,-2.654136726,-8.09530244,-1.838356916,-4.48653455,2.914695644,5.387885422,1.235268942,-4.185089425,-15.60270703,-4.675930382,-12.47159721,-3.289811115
5.622137787,-3.688445579,11.1258236,-26.10578714,-0.801538843,7.252031048,-5.275057691,-3.148189225,-11.79158338,-4.269342389,-6.737319196,1.348636427,4.129851172,1.109833382,-5.488288049,-14.00135908,-1.63136373,-8.74113903,-3.203879741
4.575546951,-4.32322582,5.598846335,-31.99751874,-2.489722393,7.507826547,-4.506882626,-2.921812009,-13.13808062,-6.770590943,-7.892239342,-1.660705073,2.499030948,0.090991751,-6.394307454,-13.08084254,-0.699501763,-7.433828549,-3.900604378
2.606038842,-6.953355049,-4.484331133,-22.79851668,-2.813588693,8.612313064,-2.780325364,-1.432646523,-11.11696999,-7.89918808,-7.635658816,-4.893090807,1.382084244,-0.889744067,-6.33558123,-13.14486898,-1.549002091,-8.175634174,-4.61886392
0.985786448,-10.49723121,-14.72344934,-6.808267566,-1.726644409,10.25894318,-0.518862779,1.477114516,-6.446787009,-6.686316182,-6.068537706,-7.026029447,1.347059755,-1.092699634,-5.526505015,-14.24856879,-2.968492068,-9.762031697,-4.943755847
0.29891572,-13.88658739,-21.39060959,4.280870614,-0.343069672,11.74096313,1.767309787,5.148632763,-1.164023232,-3.486357403,-3.466833798,-7.474251891,2.384633234,-0.514533835,-4.704845093,-15.91135731,-3.906834421,-11.03104921,-5.000046503
0.086017735,-16.27606349,-23.2208832,3.89219691,-0.141390014,12.45863284,3.847792138,8.407687327,2.730677264,0.199348224,-0.060308333,-6.56443964,4.099868245,0.268299878,-4.356844897,-17.03071089,-4.149548775,-11.41965035,-5.060753579
-0.485452177,-17.04031402,-21.35654921,-5.178221784,-1.768783323,12.35077069,5.838609805,10.33232849,4.492286283,2.746661688,3.904854249,-5.041842697,6.053458806,0.706830126,-4.216211429,-16.3028713,-4.176712396,-10.93864821,-5.031778088
-1.636125773,-15.8737314,-17.959789,-13.7594364,-4.457264439,11.85127399,7.858455739,10.79750998,4.806131807,3.442157712,7.884592382,-3.458239447,7.905487573,0.727591778,-3.567745426,-13.0786834,-4.490804735,-9.827748012,-4.385779774
-2.631435196,-13.05232037,-14.7342954,-13.85003847,-6.57140522,11.40743655,9.601803714,10.3456378,4.904607803,2.751347034,10.91317766,-1.974012067,9.323744591,0.640556104,-2.0810139,-8.104118267,-5.098991529,-8.322094273,-2.668966977
-2.402486712,-9.552770681,-12.27283796,-4.678695501,-6.85489131,11.01367908,10.31251864,9.571024936,5.458445429,1.717752055,11.95287495,-0.611954771,9.920240124,0.681172365,-0.335703845,-3.471095107,-5.585199817,-6.692527371,-0.116557648
-0.55226894,-6.698398432,-10.30079762,7.201335106,-5.357738136,10.21360656,9.309584074,8.62756442,6.160009787,1.069155734,10.58707623,0.447005422,9.43983233,0.700234369,0.549787204,-1.561564911,-5.606326956,-5.352210265,2.254245874
2.180834235,-5.407854638,-8.294407217,13.36949919,-3.30879347,8.591120377,6.665611232,7.290903672,6.225229561,0.755900204,7.494009835,0.907401996,8.084621859,0.333459904,-0.080424813,-3.537915583,-5.268557173,-4.745989707,3.272155947
4.435704261,-5.579965658,-5.95773306,9.948393239,-2.090406405,6.30086536,3.395394229,5.431515865,5.230359466,0.209556059,4.178898257,0.692766357,6.594208447,-0.520031354,-1.706451362,-8.409307068,-5.0062904,-5.016275582,2.500434431
5.281270041,-6.167466489,-3.390768533,0.081794637,-2.196899736,4.121118758,0.863204182,3.354628635,3.485345867,-0.993715014,2.01834833,0.16063426,5.840992773,-1.408143096,-2.924589765,-13.43318312,-5.098987935,-5.757398819,0.63788831
4.909495106,-5.972056963,-1.030079335,-8.94073638,-3.009489145,2.926604511,-0.196515916,1.620545539,1.665687072,-2.658240084,1.317409384,-0.113423456,6.162391849,-1.558725529,-2.557206366,-15.71027559,-5.317994422,-6.172193179,-0.952399984
4.401385676,-4.560948106,0.562946589,-11.18009896,-3.48002067,3.008040382,-0.242263917,0.50726582,0.149092659,-4.057141091,1.184615176,0.16281373,6.996108566,-0.471532293,-0.615069491,-13.95011797,-5.067389073,-5.59462738,-1.248860975
4.804678893,-2.547217799,1.052964471,-5.857754973,-3.054700958,3.827137361,-0.552435526,-0.331242935,-1.252433758,-4.482288589,0.406708641,0.701030955,7.224723591,1.650140499,1.759556381,-9.211122975,-3.907205331,-3.971240651,-0.311818123
6.321588472,-0.986152639,0.703569326,2.951685523,-2.036895256,4.433349354,-2.175611905,-1.618099425,-2.914403185,-3.814159547,-1.370630549,0.880504337,6.043918765,4.022799732,3.327002476,-4.121309648,-1.97965065,-1.878517376,0.838862763
8.252457869,-0.404207043,0.464136788,9.77859966,-1.152509082,4.198696034,-5.06977806,-3.794390714,-4.800772998,-2.691142086,-3.20132748,0.353135097,3.656991254,5.862846382,3.815155514,-1.151970897,0.058089917,-0.042276748,1.102253369
9.655074861,-0.321049976,1.493626992,11.3168872,-0.801501341,3.256593104,-8.168524981,-6.554319919,-6.316428532,-2.166254093,-3.623269224,-0.578673158,1.166911929,6.919708574,4.024829776,-1.150806739,1.539587574,1.224638516,0.210003601
10.0879471,0.282889835,4.249614131,7.632039596,-0.713324698,2.298976215,-10.32276358,-9.040481733,-6.851426603,-3.081401285,-2.089276837,-1.234952595,-0.309341777,7.512885393,4.871925506,-3.086544985,2.279527843,2.161549802,-1.060174727
9.809666373,1.930482015,7.773594213,0.880651033,-0.299689918,1.948590784,-11.29089695,-10.56116838,-6.547537418,-5.548114235,0.199413587,-1.29115237,-0.583646111,8.083536941,6.278002627,-5.043694423,2.614107396,3.147112889,-1.521618143
9.349901916,3.951202932,9.886452053,-6.723386145,0.664037774,2.275346693,-11.88646684,-11.1837086,-6.512649886,-8.841972093,0.924971606,-1.278177289,-0.568372231,8.708966202,7.011689967,-5.644628985,2.972989574,4.118760849,-0.531014027
8.927025008,4.783994921,8.428130041,-13.91612728,1.689136454,2.859946481,-13.12778418,-11.63793815,-8.132556257,-11.77657997,-1.57351816,-2.277905282,-1.471809635,9.042448792,5.733885041,-4.885019104,3.394185337,4.391234754,1.503903598
8.267239959,3.107653744,2.801401691,-19.98978089,1.892997341,3.289842222,-15.139493,-12.58551992,-11.93436525,-13.35497821,-6.748923921,-4.9427043,-3.659826939,8.725094456,2.359651692,-3.910337284,3.444981408,3.111058937,3.427311665
6.950812797,-1.084388879,-5.341187578,-23.9728777,0.706925097,3.582592699,-16.82182599,-13.91279172,-16.92272482,-13.32749537,-11.85519159,-8.642372807,-6.15973683,7.861036163,-1.528522636,-4.051181178,2.639056479,0.01857525,4.159842249
4.903104522,-6.329919648,-12.9248007,-24.50694746,-1.653444205,4.123660067,-16.66122198,-14.72003833,-20.99723505,-12.30858609,-13.6955394,-11.55510846,-7.282253457,7.075886483,-3.707570839,-5.874406627,0.978866975,-4.116278239,3.383286132
2.534130259,-10.59768813,-17.32170648,-20.62060896,-4.354380065,5.184890603,-14.04126064,-14.06637081,-22.20735467,-11.34388422,-10.88912063,-11.7911228,-5.903805645,7.058498584,-3.001252581,-8.850398804,-0.881594695,-7.789201753,1.605387764
0.393425715,-12.54719627,-17.9302364,-12.66133399,-6.5752864,6.50485888,-9.916150893,-11.82839847,-19.92879007,-11.17180082,-4.93930549,-8.755556044,-2.375823326,7.969703772,-0.21428267,-11.71852318,-2.041527653,-9.616437684,-0.342161368
-1.314242303,-12.21327483,-16.29484327,-2.539812535,-8.041720244,7.372681171,-6.196178536,-8.887724821,-15.11967878,-11.67244587,0.760908858,-3.683668152,1.689207267,9.246224011,2.50494636,-13.19603295,-2.019564941,-9.137071907,-1.90011592
-2.866668115,-10.69002831,-14.71467237,6.9056101,-9.02344347,7.193562797,-4.27997644,-6.434691822,-9.557897176,-11.92819759,3.292739519,1.115458964,4.59222833,9.998731134,3.36286521,-12.58819426,-1.133806272,-7.001795373,-3.014630341
-4.655188362,-9.185376841,-14.46596821,12.95599171,-9.864981267,6.051304411,-3.928787368,-4.97219504,-4.730856319,-10.91597392,2.210000682,3.766444905,5.74361313,9.691700782,2.26934112,-10.05125235,-0.268521756,-4.465882427,-3.923594233
-6.633045508,-8.234741154,-15.02864868,13.90386105,-10.52816774,4.749515375,-3.444813661,-3.908803207,-1.212892006,-8.365915046,-0.273873356,3.96540418,5.94708926,8.550008033,0.742540374,-6.488225894,-0.198148229,-2.602137022,-4.787380919
-8.101134987,-7.606540307,-14.83874257,9.561813089,-10.58277761,4.251030863,-1.061024089,-2.146806225,1.157069163,-5.133912978,-0.983673347,2.940349999,6.60120236,7.369545414,0.525584235,-3.164671443,-0.998123929,-1.780650356,-5.51862171
-8.078091366,-6.796701634,-12.82351009,1.398362733,-9.645547181,4.958558757,3.551045369,0.801766696,2.682570001,-2.745373842,1.932902612,2.357538719,8.512334277,6.904009687,2.146685935,-1.161460747,-1.999809458,-1.678184883,-5.91495025
-6.001672951,-5.569612802,-9.382420697,-7.793605496,-7.850624776,6.424157478,8.85968802,4.139148635,3.441864569,-2.38568278,7.767951737,3.073681548,11.26666926,7.327888497,4.624172278,-0.847237469,-2.312197707,-1.669077649,-5.900926655
-2.217849619,-4.094240913,-6.032043708,-14.9042212,-5.909172521,7.714012358,12.47396463,6.187509477,3.427877376,-4.065155654,13.82135429,4.651779374,13.58606373,8.173690633,6.449635555,-1.644100332,-1.495346198,-1.249389302,-5.612509121
2.125425121,-2.67932957,-4.118529443,-18.05334932,-4.68672024,8.108759034,12.78201964,5.620265768,2.905287488,-6.588066128,17.20075093,5.872070045,14.28418938,8.730015699,6.865523604,-2.321059601,0.126147123,-0.253248229,-5.246033513
5.702556684,-1.468082271,-3.772217029,-17.82998137,-4.645557891,7.563879027,9.981093015,2.549977935,2.473328995,-8.352936519,16.51881137,5.699011783,13.03026619,8.537217654,6.286381213,-1.77007229,1.721300327,1.145642679,-4.838835575
7.705560525,-0.403338198,-3.985616183,-17.06061248,-5.595752082,6.595934025,5.792224721,-1.416334043,2.653861193,-8.377705406,12.43573131,3.930549913,10.40376938,7.608811999,5.598741888,0.171849949,2.554871473,2.533151109,-4.214148126
8.16368961,0.568851324,-3.645381522,-18.70893707,-6.910974757,5.763474565,2.198364275,-4.230730866,3.363074118,-6.79714768,6.949465032,1.160032416,7.363885385,6.294958393,5.147832466,2.462101201,2.471304875,3.393526876,-3.15895315
7.761279947,1.345521885,-2.507790327,-23.08443169,-7.975470102,5.226005049,0.227981253,-4.769841068,3.824573776,-4.53903654,2.152753514,-1.716500819,4.673119749,4.996778371,4.46495819,3.466104843,1.92606871,3.312712754,-1.676565089
7.370322157,1.764865952,-1.224502653,-26.62170514,-8.484286706,4.733784466,-0.376635733,-3.492832132,3.11933039,-2.55347638,-0.695724401,-3.951408431,2.69206233,3.986458907,2.99345914,2.120876066,1.588772674,2.233895521,-0.080136259
7.620225863,1.843297918,-0.463828886,-23.81504957,-8.41842588,3.979617381,-0.56845161,-1.956960147,0.966069037,-1.273991257,-1.410172595,-5.084587462,1.511895334,3.40061854,1.017953966,-1.178175572,1.843839959,0.615207773,1.167206695
8.685836992,1.846902762,-0.047992761,-11.53620155,-7.839372159,2.933014346,-1.139152571,-1.641649355,-1.945588414,-0.685524144,-0.59908901,-4.897574859,1.093877667,3.282200904,-0.267464023,-4.701208622,2.547130857,-0.713601128,1.739158857
10.28088177,2.044658803,0.979369967,7.345767158,-6.781551407,1.847748088,-2.296474222,-2.999866441,-4.40494944,-0.767200846,0.764739246,-3.449710208,1.209352632,3.546640535,0.20148357,-6.543010271,3.172519037,-1.028076985,1.62950737
11.77619975,2.345265654,3.332502164,24.27402805,-5.359118615,0.985620936,-3.839631983,-5.373907673,-5.575115246,-1.741228291,1.722724837,-1.23690511,1.331037243,3.91196509,2.119729425,-6.022480751,3.195654731,-0.25055356,1.09636292
12.41527477,2.206879099,6.444417107,29.86227098,-3.929956392,0.375776263,-5.54363938,-7.679417136,-5.591024118,-3.807857771,1.656922232,0.785127613,0.788102752,3.95034391,3.643888113,-4.264268678,2.422917136,0.867848501,0.430534661
11.62955266,1.003762159,8.468987897,20.29209713,-3.060438408,-0.13357725,-7.287433614,-9.20633014,-5.359596709,-6.633916142,0.557262643,1.567135953,-0.750953215,3.332086656,2.701647263,-3.463521553,1.055812568,1.154428997,-0.25967362
9.369854912,-1.403074488,7.516392249,0.529290153,-3.216354885,-0.598383288,-8.855667185,-9.923409028,-5.746310766,-9.203600238,-0.923068326,0.614778477,-2.827736558,2.111930711,-1.188624112,-5.323897992,-0.506135056,-0.204276033,-1.090819789
6.24968158,-4.39732663,3.19671236,-18.43849008,-4.395528398,-0.796377313,-9.757843398,-10.18670955,-6.858602491,-10.36358171,-1.792770566,-1.562638094,-4.272246599,0.788182865,-6.182874045,-9.807660446,-1.942980434,-3.061888777,-2.265981947
3.317932382,-6.941181078,-2.824966518,-26.74154847,-6.030500052,-0.378362622,-9.410091133,-10.25073847,-8.035771535,-9.71751441,-1.351671549,-3.660983684,-3.934201741,0.008571092,-9.271629594,-15.11739152,-3.164062023,-6.361666505,-3.875813293
1.508879285,-8.294117341,-7.818099126,-22.04057013,-7.299680044,0.750035838,-7.620864996,-10.05507157,-8.5182466,-8.084106991,0.269836729,-4.422519287,-1.590871587,0.105545651,-8.545329704,-18.90139285,-4.242826303,-8.825856333,-5.776396601
1.099503671,-8.529988433,-9.823541165,-10.43447716,-7.648228737,2.186658268,-4.934631639,-9.416118923,-8.165816471,-6.998122219,2.10492749,-3.531725803,1.71561626,0.833668553,-4.740250701,-19.76913223,-5.219647009,-9.775620034,-7.605185971
1.574633192,-8.400236186,-8.928814617,-1.230300977,-7.13206545,3.215493163,-2.431413188,-8.357112343,-7.563507142,-7.540177449,2.96941016,-1.869273586,4.28311653,1.548829718,-0.733603103,-18.02625797,-5.951967518,-9.471702602,-8.909040458
2.039614567,-8.64055507,-7.00736411,0.273754025,-6.328247562,3.315342094,-1.049017449,-7.218023434,-7.420741072,-9.429867109,2.29337777,-0.893039964,4.906581403,1.701913622,0.671284789,-15.19909213,-6.149787222,-8.756234072,-9.318747268
1.901088342,-9.307606145,-6.167943548,-3.711461475,-5.893678681,2.568954926,-0.957472187,-6.440522713,-7.82423601,-11.18754646,0.537205942,-1.599506314,3.697056119,1.240053716,-1.117709991,-12.85167994,-5.586451065,-8.332452977,-8.706165974
1.303637602,-9.720298235,-7.158386441,-6.33862014,-6.116742928,1.596343651,-1.520833127,-6.245546116,-8.058065916,-11.30752171,-1.141416523,-3.848211035,1.900186802,0.581034852,-4.171073547,-11.65203556,-4.325807816,-8.276170169,-7.267310652
0.982059261,-9.06255922,-8.943848268,-2.777287873,-6.784060734,1.041060689,-1.893271742,-6.506745874,-7.211144817,-9.507328802,-1.718654068,-6.527792513,0.857036124,0.20197023,-5.779615893,-11.30331898,-2.770152195,-8.127920999,-5.480343505
1.647285168,-7.129584067,-9.696625371,5.084903793,-7.417000043,1.041106512,-1.741021385,-6.917480653,-5.082030224,-7.004909261,-0.997899058,-8.368557773,0.961854415,0.227873035,-4.750967749,-11.17720083,-1.450001783,-7.401165893,-3.921821038
3.395068804,-4.572961156,-8.327889231,9.991834052,-7.655559837,1.144185871,-1.464596369,-7.272018286,-2.587060099,-5.567336742,0.334368637,-8.734434368,1.473626743,0.399417724,-2.315464211,-10.95730822,-0.675557919,-6.0148222,-3.003777932
5.598884661,-2.433395278,-5.342930757,5.680555511,-7.496838037,0.740874622,-1.734472813,-7.597226631,-1.253743616,-6.112290168,1.263511024,-7.831277749,1.31445673,0.437951756,-0.910070159,-10.73380887,-0.30388472,-4.28800261,-2.773701341
7.346707579,-1.360404872,-2.422733312,-7.157953303,-7.252090952,-0.370152396,-2.763416786,-8.038483981,-2.126962953,-8.026775322,1.130357195,-6.31097308,0.150403705,0.438771585,-1.937583687,-10.59236391,0.173982821,-2.57306537,-2.917254508
8.048575597,-1.172390446,-1.153090206,-20.59894805,-7.307717551,-1.787348408,-3.976736968,-8.642188766,-4.910808732,-9.751396558,-0.05229653,-4.729821727,-1.18536488,0.877690272,-4.466639333,-10.22466165,1.245795571,-0.932312618,-2.984445419
7.740014845,-1.097508933,-1.913208808,-25.49115202,-7.881605979,-2.84907739,-4.395764446,-9.258070743,-8.012168346,-10.09383332,-1.76296532,-3.333790798,-1.303442076,2.171797691,-6.005184323,-9.020516672,2.954318342,0.814133323,-2.694413474
6.900972301,-0.448213813,-3.70334307,-18.9681322,-8.912460331,-3.196315588,-3.427535044,-9.649114601,-9.483571471,-9.132131792,-3.336961007,-2.24005646,0.595482989,4.176366132,-4.676316852,-6.585591329,4.768279129,2.734616381,-2.098805325
6.021827564,0.858135948,-4.924905766,-7.14253974,-10.1007178,-3.045093033,-1.402359358,-9.695331003,-8.220171924,-7.972836933,-4.207026973,-1.683778717,3.978536538,6.111240761,-0.911654437,-3.180988977,5.889827891,4.512871412,-1.481999924
5.313672055,2.333276338,-4.473732695,-0.434262389,-11.04776259,-2.93345541,0.582095188,-9.504889376,-4.625825286,-7.667527935,-3.962858484,-1.980431183,7.234110157,7.06233817,2.807888555,0.364686498,5.813099757,5.57812847,-1.086493711
4.759049009,3.393489141,-2.410942475,-5.080635443,-11.43602168,-3.195598749,1.374012798,-9.351668672,-0.374243633,-8.322377046,-2.423599938,-3.203762014,8.699142494,6.687972332,3.962750753,3.219504761,4.731642676,5.568513614,-0.900987994
4.35098553,3.801605796,0.122787065,-17.74277154,-11.19644909,-3.664402695,0.472957481,-9.515064402,2.509604905,-9.200018226,0.145997076,-4.925683346,7.659350408,5.538425965,2.070216797,5.077172431,3.47234789,4.711078539,-0.69922802
4.212166176,3.702030374,1.582532848,-27.82540776,-10.58313315,-3.88100936,-1.768793047,-10.14869791,2.668785852,-9.639474151,2.852033344,-6.350620293,4.630710281,4.688428721,-0.90259477,6.171600381,2.973037271,3.739766977,-0.297809982
4.458216248,3.307350357,0.857254099,-25.89199113,-10.06402428,-3.603054442,-4.488509133,-11.22523399,0.01396854,-9.823003733,4.374395123,-6.80962566,0.866087658,4.951090586,-2.107414918,6.803092307,3.66855944,3.376317556,0.203457392
4.977607745,2.626192199,-2.12811435,-11.45417733,-10.01938201,-3.109517487,-6.827514236,-12.51459887,-4.301666969,-10.56140353,3.674164893,-6.217669694,-2.396818883,6.297662232,-0.048621852,6.896244825,5.230299751,3.801710435,0.437565808
5.420020672,1.538887171,-6.288874084,6.279126923,-10.40557179,-2.983798055,-8.226598737,-13.56997996,-8.429943375,-12.24356948,0.814672513,-5.09936268,-4.386353212,7.936909337,4.324719302,6.097165124,6.841847115,4.570929786,0.064399337
5.47992915,0.130201989,-9.812777344,15.49830154,-10.65415447,-3.556401996,-8.430121587,-13.79297135,-10.63309974,-13.9935484,-2.788912181,-4.161697208,-4.812571358,8.95669098,8.462778833,4.374664823,7.788194702,5.038553723,-0.891817026
5.229945241,-1.114675426,-11.03205295,11.12888108,-9.981050486,-4.537731693,-7.421673539,-12.67618741,-10.03228265,-14.01225171,-5.077674741,-3.785447353,-3.732968841,8.977195387,10.18950108,2.51788234,7.90747922,4.914382341,-1.963084539
5.144228666,-1.537250382,-9.363861714,-1.148646735,-7.98052179,-5.227317906,-5.487381275,-10.17974276,-6.985996871,-11.02753555,-4.653099721,-3.849141615,-1.560144394,8.297266941,9.171237232,1.898976774,7.584065207,4.466569503,-2.520352733
5.707350449,-0.813755866,-5.760620724,-9.547894445,-5.088822295,-5.157517836,-3.317118061,-6.983658741,-2.874736091,-5.653716725,-1.734703087,-3.961533686,0.848551544,7.485781359,6.808951376,3.493854472,7.339637468,4.225724558,-2.217829639
6.915410512,0.728402166,-2.240303368,-5.832084157,-2.497332127,-4.595090429,-1.859020735,-4.307287425,0.679663639,-0.336265007,2.020156246,-3.79970694,2.35267111,6.847363017,4.864472045,6.905572474,7.392014035,4.502243685,-1.246359128
8.146025892,2.341299044,-0.604783731,7.817286032,-1.455636362,-4.400028665,-1.80693323,-3.242374307,2.770910616,2.337975307,4.7704174,-3.204494564,2.111948742,6.252983547,4.108256545,10.30568068,7.544668701,5.181238043,-0.183566391
8.596523557,3.495029557,-1.115186962,20.34854395,-2.395780583,-5.292974064,-3.011510833,-3.969076624,3.731138156,1.73143682,5.865927825,-2.008543585,0.272792989,5.438008066,4.072988324,11.54968471,7.460561763,5.96410392,0.447022148
7.974715041,4.36137755,-2.132143328,20.66988229,-4.530598335,-7.134260332,-4.34899018,-5.455398249,4.79091383,-0.109153607,6.234790401,0.080631105,-1.872243589,4.411409314,3.907316856,9.724623844,7.03490208,6.768495195,0.555978845
6.838693524,5.649330075,-1.195395775,6.716800993,-6.299104869,-8.866201495,-4.33914995,-6.004418163,7.02375212,0.133468404,7.445602121,3.236595213,-2.610991523,3.52458839,3.372469076,5.905975219,6.506770473,7.827033885,0.502729125
6.222138348,7.850963957,3.040537758,-12.54490504,-6.414354185,-9.240927341,-2.199470933,-4.403642479,10.31249508,4.430712709,10.19804232,7.010216811,-1.058685859,3.102421568,3.02350996,2.423220944,6.200137558,9.323493683,0.738120088
6.786357256,10.5239322,9.400557124,-23.85238124,-4.78188236,-7.786537545,1.435703868,-0.898592438,13.17491736,11.61752737,13.4951323,10.07256133,2.002450061,3.000080605,3.476215882,1.107626855,6.13602312,10.90377809,1.369477646
8.192259274,12.29715732,14.51810715,-19.79646053,-2.604969651,-5.232573084,4.761030893,2.775474245,13.71008386,17.92607152,15.21608358,10.66200347,4.453656762,2.565997551,4.537677981,1.873786739,5.894408295,11.61048296,2.002506343
9.260780438,11.73376146,14.91680141,-4.344903973,-1.573239781,-3.034450841,5.937530417,4.442053662,11.04679018,19.55950481,13.66648938,7.636782195,4.240782932,1.13166104,5.081336588,2.800872414,4.897647736,10.46632371,1.989933264
8.85315467,8.453501817,9.489272929,10.5906549,-2.709262775,-2.360823331,4.32838655,2.942100974,6.189052444,15.40210666,8.881824199,1.422915761,0.858090379,-1.365394133,3.832538483,1.714893337,2.909562457,7.322309024,0.897662503
6.780538099,3.626002279,0.548748124,14.72051259,-5.696447922,-3.330073612,0.91464881,-1.02693232,1.520452951,7.820308934,2.666287396,-5.938812494,-4.224067916,-4.200264111,0.391730914,-1.955771854,0.325870869,3.242128296,-1.159088842
3.991728363,-0.628016206,-7.460663743,7.403344412,-9.137547392,-5.055565417,-2.419204833,-5.31675093,-0.762933735,0.97162427,-2.623809667,-11.83767591,-8.553200181,-6.344837658,-4.381319946,-6.557513708,-2.026040948,-0.02423263,-3.543593397
1.867072413,-2.562904011,-10.81303695,-2.235863299,-11.49688076,-6.39192117,-4.17389061,-7.710364861,-0.148919211,-2.062672542,-5.564692099,-14.57227495,-10.37281138,-7.249079285,-8.923761043,-9.384671687,-3.461587863,-1.196605679,-5.448387707
1.18821231,-1.923299067,-8.916937272,-3.110689516,-12.00833663,-6.738738077,-4.123264338,-7.304238882,1.91399812,-1.169569536,-6.301779157,-14.22608057,-9.71467273,-7.252000324,-11.97125888,-8.776333138,-3.945796305,-0.395349431,-6.314500083
1.623576501,-0.047284881,-4.55017447,8.387894766,-10.93341604,-6.289096208,-3.191048952,-4.932805689,3.190715515,1.187194936,-5.996791239,-12.33996228,-8.118313907,-7.24319944,-13.20176382,-5.489579857,-4.116166602,0.913628884,-6.058666329
2.130798714,1.104612103,-1.734469255,24.87111469,-9.105715448,-5.638951392,-2.534635858,-2.402550631,2.380973063,2.159559962,-5.713938248,-10.70275341,-7.292143431,-7.843445121,-13.11581838,-2.231726879,-4.774179707,0.984879518,-5.016931135
1.903098948,0.290341146,-2.804470995,33.20365271,-7.230062579,-5.210423454,-2.650219421,-1.167932096,0.051318618,0.723037433,-5.716196903,-10.22410528,-7.839250153,-8.813412009,-12.42463857,-1.666658354,-6.219432562,-0.903361256,-3.70156262
1.042687719,-2.231079273,-6.807163893,24.50292862,-5.502586699,-5.024235848,-3.199420007,-1.430510765,-1.922942084,-1.736650787,-5.633910564,-10.69313901,-9.03350013,-9.227993562,-11.54700312,-4.41290736,-7.937611515,-3.892700467,-2.544003944
0.40786755,-4.958349931,-10.35704274,1.211925651,-3.758582579,-4.952779059,-3.575337352,-2.244814694,-1.908768793,-2.729342592,-5.139375569,-11.42652183,-9.700004572,-8.296542393,-10.56174589,-8.569167269,-8.896192546,-6.156871357,-1.746650369
0.810500864,-6.191850118,-10.24455557,-24.10394614,-1.889904356,-5.100737912,-3.592590241,-2.423390118,0.217310784,-0.699023602,-4.37765527,-12.07973082,-9.339958279,-6.131373278,-9.455049094,-11.12475583,-8.250094776,-6.21479532,-1.272078236
2.291671395,-5.118804689,-5.833067384,-37.24552569,-0.101488655,-5.851461546,-3.642717036,-1.477027298,3.086989202,3.775761313,-3.763069396,-12.85970734,-8.508128707,-3.78114212,-8.268661791,-10.17035926,-5.958797428,-3.963216931,-0.937467602
4.098525375,-2.256287046,0.49515361,-31.78737035,1.199158527,-7.474106639,-4.202812742,0.101435488,5.05565462,8.399421818,-3.443104945,-14.02511577,-8.17116271,-2.458565636,-6.990193375,-6.241393522,-2.884834989,-0.698874005,-0.563203273
5.336515832,0.946748587,5.094436327,-12.65400514,1.716480457,-9.659679941,-5.202791985,1.325230621,5.544603287,10.72900739,-3.062459726,-15.26930719,-8.68632122,-2.585320355,-5.419811644,-1.828609755,-0.313851502,1.815437713,-0.112936584
5.673408145,3.019427288,5.663108735,8.244220085,1.458586585,-11.48538125,-5.886642487,1.505537861,5.380731606,9.706151042,-2.120194757,-15.69068355,-9.34849681,-3.452157944,-3.330925582,0.504460148,0.773574475,2.503659109,0.252728583
5.462461601,3.31589918,2.813363878,20.53713627,0.646755246,-11.9550139,-5.343838901,0.727715464,5.90012754,6.181531264,-0.562650632,-14.47170183,-8.918990212,-3.790141611,-0.89227566,-0.051526356,0.209851753,1.536934964,0.267718612
5.226223381,2.335456213,-0.444878224,21.64881199,-0.513613113,-10.73663447,-3.268812272,-0.278325738,7.651006613,2.277968016,1.038421943,-11.66680398,-6.672765778,-2.791515136,1.094954513,-2.102336222,-1.359437519,0.014503618,-0.22965635
5.056448755,1.379514081,-0.835739712,16.65214204,-1.929176654,-8.49535501,-0.289985368,-0.681778971,9.855887672,0.155053574,1.990717377,-8.331130502,-3.057639778,-0.74750425,1.573366745,-3.205255903,-2.927963783,-0.870087877,-1.107200741
4.558827523,1.754067718,2.974386453,12.72615532,-3.480552729,-6.514473771,2.418100326,-0.070810839,11.10377308,0.921009294,2.232399827,-5.788051406,0.584513681,1.204448961,0.10592771,-1.679352835,-3.715537429,-0.536484096,-1.941953584
3.424645071,3.947545009,9.550580633,13.08253323,-4.835526416,-5.868283346,3.909462794,1.366669969,10.64675002,4.162218348,2.562668464,-4.62923477,2.971495481,1.992573355,-2.454985807,2.259061875,-3.537735848,0.80680128,-2.271855247
2.054156225,7.239972816,15.6535095,15.04573867,-5.498797968,-6.768261789,3.988470061,3.008235238,9.127878342,8.180867977,4.000487672,-4.328597236,3.699630649,1.423484641,-4.239684151,6.748984102,-2.782817936,2.461976371,-1.943970126
1.525977883,10.00505644,18.20875069,13.26906328,-5.169023374,-8.550367076,3.097119814,4.106229286,8.04975454,10.78405646,6.74130876,-3.839646202,3.292067097,0.2536562,-3.605228717,9.585116505,-2.067444589,3.674924429,-1.279755745
2.773783286,10.59900673,15.96959113,4.991918581,-4.131992287,-10.24844905,1.758740209,4.057311935,8.397210507,10.32989964,9.647284937,-2.670873054,2.540781871,-0.485587137,-0.487138254,9.554998282,-1.812172919,3.919512855,-0.874040523
5.612521796,8.354400265,9.944678378,-7.068578106,-3.286163129,-11.25764643,0.133247803,2.587747772,9.60338323,6.60776818,10.83792345,-1.479667686,1.792701018,-0.310092684,3.280930685,6.943786897,-1.994118971,2.99570158,-1.128876146
8.525262738,4.060539867,2.559055466,-16.3986345,-3.642793832,-11.58894837,-1.91955893,-0.117345357,9.816408577,1.071174258,9.019662426,-1.616860387,0.803321185,0.420958501,5.120434241,3.061787822,-2.210778133,1.054060674,-1.875506679
9.568816298,-0.425704663,-3.729903611,-17.42969916,-5.591645816,-11.6141468,-4.384743618,-3.371407985,7.356522061,-3.850750348,4.515020157,-3.965314065,-0.788489609,0.92227793,3.590731396,-0.668055015,-1.999852637,-1.398794906,-2.422872546
7.803095151,-3.238000007,-7.473254608,-9.560948532,-8.487935105,-11.62499203,-6.74416458,-6.139018872,2.233292863,-6.111145981,-0.853768421,-8.050083061,-2.879839885,0.698427303,-0.433161986,-3.370910453,-1.203663422,-3.59306478,-2.057008542
4.116252496,-3.546926044,-8.4458663,2.533352223,-10.93684083,-11.61948493,-8.138053563,-7.437499252,-3.525768953,-5.274739165,-4.947932947,-12.19357297,-4.794782881,-0.064471272,-4.278918769,-4.811498338,-0.130876533,-4.77114267,-0.634291102
0.712989542,-1.895024975,-7.169387791,12.31780275,-11.63792364,-11.44717585,-7.958855427,-6.84499323,-7.086587077,-2.743491118,-6.626146303,-14.62091236,-5.758432464,-0.725418611,-5.388960636,-5.103406453,0.612482612,-4.564450801,1.213084061
-0.417878524,0.369381022,-4.279460236,15.77684287,-10.20868597,-11.08981405,-6.381279014,-4.80301862,-6.71378178,-0.71904164,-6.202923721,-14.64100558,-5.524345302,-0.782154897,-3.204541409,-4.443045708,0.531148632,-3.226641805,2.470217355
1.103249352,2.075115532,-0.250702683,13.524087,-7.400546083,-10.75672229,-4.356408184,-2.451942603,-2.978779344,-0.590674549,-4.841176295,-12.99988943,-4.599813778,-0.296103357,0.418934756,-3.105277268,-0.387082098,-1.518120081,2.466299955
3.869723073,2.845138772,4.381363935,9.361266103,-4.568174794,-10.69943153,-3.040353033,-1.027191289,1.596012424,-1.965649483,-3.55782196,-11.21864909,-3.889843806,0.193083756,2.581694848,-1.607435041,-1.615623424,-0.289769569,1.374806936
5.83844276,2.909963065,8.606792307,6.750061828,-2.80235696,-10.9522882,-3.092841473,-1.168689093,4.165046944,-3.142050926,-2.733354142,-10.53979383,-4.086648843,0.142334957,1.437043017,-0.768861084,-2.424147186,-0.061302577,0.074694153
5.857547714,2.398968613,10.84666862,6.086436102,-2.356501849,-11.28172286,-4.365187017,-2.589704201,3.281798513,-2.690746494,-2.406020097,-11.31875314,-5.305395446,-0.56386316,-2.566264383,-1.489040522,-2.387108496,-0.890116455,-0.543255642
4.350677177,0.868590476,9.495892354,4.823801798,-2.729854811,-11.40865655,-6.148479621,-4.316855927,-0.430659306,-0.853678089,-2.819578618,-13.18578643,-7.184095185,-1.571147989,-7.159832677,-4.314381298,-1.691587741,-2.560705509,-0.289137652
2.673498984,-2.380193585,3.930147374,0.166799021,-3.250260289,-11.28134334,-7.699902935,-5.318458099,-4.958066923,0.474138549,-4.473485453,-15.59329397,-9.230857263,-2.378062407,-9.964679439,-9.042306753,-0.993035542,-4.835522459,0.162567993
1.776867263,-7.390974137,-4.66277254,-7.932116055,-3.646207417,-11.11231304,-8.603248662,-5.085280543,-8.263579237,-0.713165238,-7.505371786,-18.11796351,-11.03678998,-2.702294348,-10.06669355,-14.60463837,-0.904605713,-7.479518036,-0.199347068
1.3655937,-12.88711306,-13.34343397,-15.93888579,-4.171725582,-11.12426879,-8.755255175,-3.803522304,-9.338508677,-4.671095138,-11.0372921,-20.28950094,-12.20899067,-2.590539365,-8.336451601,-19.32775662,-1.50499754,-10.04615328,-1.909312468
0.272589895,-16.62292919,-18.62622557,-18.86162809,-5.251621025,-11.25280296,-8.144536574,-2.086230001,-8.354538456,-9.317057915,-13.31625628,-21.3191565,-12.24337271,-2.25124094,-6.454883381,-21.50325173,-2.261009357,-11.73051938,-4.558191034
-2.310519699,-16.72004685,-18.3107778,-13.86489475,-6.999784034,-11.12471573,-6.743827307,-0.536720389,-6.097769547,-11.56577066,-12.80870051,-20.270221,-10.65684216,-1.838916035,-5.589419279,-20.08746288,-2.449215473,-11.61986933,-7.032057467
-5.86301648,-13.06511854,-12.85649223,-2.718148358,-9.028369728,-10.38170506,-4.646499338,0.526161258,-3.325635781,-9.669824836,-9.450856388,-16.75402064,-7.412010155,-1.411614074,-5.775997463,-15.27646295,-1.758758624,-9.322448801,-8.266673686
-8.728501924,-7.640688229,-5.327276588,8.830431589,-10.69163713,-9.074109198,-2.261921171,1.054357159,-0.546541879,-4.735481058,-4.934533509,-11.59109702,-3.276651381,-1.058008699,-6.318189429,-8.6733527,-0.591726674,-5.518791446,-7.945157247
-9.373955263,-3.390956971,0.242045027,14.50382265,-11.54567741,-7.741021955,-0.274155744,1.102208217,1.794327256,-0.127117015,-1.614470298,-6.713529078,0.320190569,-0.994017148,-6.636542285,-2.837767426,0.198671711,-1.879065425,-6.641218176
-7.680901627,-2.349219709,1.159013545,11.47733169,-11.64785647,-7.047244396,0.714252477,0.729119772,3.130231141,0.904366882,-0.806749169,-4.142146181,2.004958627,-1.462924461,-6.740130111,-0.250919092,-0.056388345,-0.197510004,-5.355671232
-5.164299812,-4.367215627,-2.372623279,2.142428005,-11.46914596,-7.251090332,0.595975036,0.067016944,2.93402473,-2.385463091,-1.858686188,-4.701955209,1.299137913,-2.498746487,-6.987241882,-2.091627857,-1.331398618,-1.234779996,-4.836609342
-3.875832684,-7.36756022,-7.488681342,-7.598276313,-11.50240421,-7.961570418,-0.144360856,-0.563233153,1.157640393,-7.64244651,-2.805046794,-7.481351548,-1.060613622,-3.793711847,-7.519633552,-7.479036119,-2.930916287,-4.102490498,-5.17547707
-4.827366584,-8.902014291,-10.57260983,-12.32586571,-11.87032819,-8.422550565,-0.785313107,-0.684173293,-1.474094903,-11.0877246,-2.108459444,-10.52441366,-3.612889463,-4.850460705,-8.020223043,-13.73583049,-4.02823474,-6.731812553,-5.897457892
-7.176719733,-7.840758312,-9.598270665,-10.57472382,-12.21742501,-8.112372556,-0.916648348,0.084210463,-3.699760321,-10.20837864,-0.038204652,-12.25998419,-5.135135276,-5.33853565,-8.055647045,-17.69927482,-4.279644868,-7.203396157,-6.37915332
-8.823902764,-4.986867855,-5.366852562,-5.336930705,-11.95417971,-7.163523751,-0.73366201,1.696077523,-4.452381896,-5.483073814,1.485266822,-12.55383539,-5.367011016,-5.358793826,-7.640027379,-17.42696156,-4.016067068,-5.049825665,-6.241894994
-7.963264605,-2.289851448,-0.844743787,-1.33553308,-10.68102125,-6.247463108,-0.833601179,3.541386007,-3.598935678,0.053869061,0.465127457,-12.57156694,-4.983393848,-5.366168746,-7.408466541,-13.28330178,-3.867127053,-1.60536734,-5.484372681
-4.412423273,-1.382835098,0.904997176,-1.210884521,-8.513095716,-6.02184273,-1.692738871,4.66363772,-2.107819983,2.970293954,-3.49587104,-13.62213341,-4.918214068,-5.787631716,-8.150568826,-7.682097435,-4.146172134,0.870522434,-4.371706785
0.254473434,-2.563370186,-1.223588631,-3.593160471,-6.099577329,-6.609321221,-3.272197103,4.252387477,-1.435266522,1.67691564,-8.813762549,-15.9810426,-5.637509179,-6.645934331,-10.07551738,-3.589316668,-4.521912528,0.703426864,-3.249947207
3.809336071,-4.842656191,-5.699593034,-4.581869459,-4.316962665,-7.543317944,-5.078178092,2.120395734,-2.498906903,-2.786862512,-13.11843164,-18.66427834,-6.930528706,-7.508471776,-12.47098313,-2.720864406,-4.258133895,-2.084683507,-2.412220099
4.847378372,-6.802494186,-9.433168728,-1.452628222,-3.80287571,-8.206529218,-6.600148933,-1.137668515,-4.956824279,-7.759643984,-14.97862687,-20.28128033,-8.287931904,-7.80724936,-14.10119862,-4.602405751,-2.824420398,-5.797167164,-2.015527234
3.582932041,-7.477381783,-9.81338492,4.461234091,-4.591893255,-8.362928611,-7.728274771,-4.415249791,-7.351755371,-10.81004394,-14.71878467,-20.18316585,-9.428726562,-7.259792081,-14.05054408,-7.086631245,-0.371926069,-8.156214932,-2.003120647
1.496677313,-6.672722508,-6.33100273,8.259573727,-6.071907901,-8.314607921,-8.78924863,-6.638928553,-8.094498847,-11.07257592,-13.74965917,-18.92537061,-10.46773043,-6.042575911,-12.33481772,-7.926156978,2.314158145,-7.702389415,-2.065158961
0.21929083,-4.739032121,-0.780495825,5.256500033,-7.310360661,-8.556343674,-10.18975881,-7.273216356,-6.645424231,-9.326537579,-13.15154362,-17.71719926,-11.61373055,-4.595032146,-9.8105471,-6.286642567,4.33669284,-4.599637514,-1.744894758
0.499889136,-2.237575017,3.97260628,-4.796592914,-7.580064853,-9.247160372,-11.99664557,-6.505244561,-4.050154326,-7.088414523,-12.84106495,-17.42042698,-12.75942733,-3.255809816,-7.512552473,-3.171066696,5.252837931,-0.413438801,-0.728738034
1.91019331,0.177722653,5.766779805,-16.54865492,-6.769521446,-9.976518754,-13.81465209,-5.027422959,-2.372154825,-5.567349222,-12.01547177,-17.99079436,-13.42155224,-2.061858246,-6.000135628,-0.541486715,5.246188947,2.884308143,0.834325312
3.331810078,1.754739358,4.32428246,-22.28971602,-5.405412918,-10.03993171,-15.03951429,-3.570894702,-3.3138842,-5.156169204,-10.32002824,-18.77058792,-13.13039293,-0.865255664,-5.209972029,0.141444093,4.823006523,4.00355267,2.265264209
3.764433274,1.828034476,1.191267312,-17.49220492,-4.254697839,-8.992740605,-15.24044408,-2.478571594,-6.928088779,-5.535366113,-8.492969946,-19.22729064,-11.9035744,0.386586265,-4.812335187,-1.123988373,4.350678175,2.895971878,2.702855002
2.902778989,0.274687935,-1.37731319,-4.506401686,-3.770899198,-7.013295447,-14.35266943,-1.570788661,-11.34538187,-6.040155054,-7.755893424,-19.36035865,-10.32111762,1.512865982,-4.629865292,-3.063528909,3.85344169,0.577321464,1.70378508
1.209676508,-2.114970968,-1.795522819,8.631717843,-3.785248467,-4.777195536,-12.57791698,-0.371560188,-13.81149031,-5.966930276,-8.464250508,-19.39629299,-9.073591262,2.26005296,-4.698745275,-4.202768511,3.204841118,-1.55471089,-0.339128835
-0.430090933,-3.840887478,0.055296922,13.73284474,-3.684897755,-2.962143798,-10.16737713,1.465383808,-12.42796155,-4.778159367,-9.345729676,-19.15565628,-8.359834236,2.609392263,-4.975999199,-3.953536238,2.470538765,-2.462174776,-2.338266286
-1.203283087,-3.554932482,2.992752214,8.393855356,-2.952950179,-1.801156227,-7.32975517,3.826337994,-7.444009778,-2.316244137,-8.236645297,-17.85166351,-7.689264515,2.90640195,-5.088759407,-2.906775184,2.013979609,-1.893572628,-3.19029735
-0.755612386,-1.03598552,5.427672527,-2.101810784,-1.643219409,-1.033509747,-4.320572734,6.144897704,-1.179101601,0.995182892,-3.895800056,-14.68289792,-6.310000044,3.626098158,-4.489920834,-2.208606516,2.210323212,-0.355740219,-2.527373346
0.670178102,2.515471792,6.351435738,-8.487004432,-0.38589946,-0.248666807,-1.538869065,7.762567831,3.436627088,4.18392716,2.593311348,-9.769131649,-3.923145052,4.926636067,-2.956476916,-2.610322528,3.008742213,1.268844642,-0.967285228
2.383929408,5.211639908,5.81037703,-4.22169877,0.11460266,0.701827304,0.566560005,8.398735668,4.741077237,6.168652104,8.136221164,-4.528746514,-1.061620963,6.377368866,-0.96316216,-3.970841928,3.774768414,2.215964299,0.353255377
3.625402575,5.763710517,4.652537474,9.65536331,-0.303539872,1.568732055,1.76378472,8.3779309,3.338473439,6.435662116,9.612289487,-0.984417163,1.222903794,7.147821686,0.500822981,-5.543407529,3.642000183,2.188161921,0.619633704
3.993779527,4.346035436,3.816067777,25.0389976,-1.056006032,1.920779732,2.226848413,8.407933213,1.507155268,5.460166211,6.090575955,-0.416334809,2.128369303,6.573589566,0.624612025,-6.70272756,2.164714073,1.405676228,-0.091978788
3.67377682,2.364685184,3.698584625,32.18923904,-1.241294722,1.487570627,2.405839796,9.025052068,1.43664106,4.446437159,-0.418854394,-2.431436778,1.686951662,4.681287434,-0.566658708,-7.431711994,-0.234017585,0.381494391,-0.951034877
3.271145013,1.337729143,4.038707484,26.11905263,-0.393944986,0.334960961,2.615936061,10.09620019,3.570236694,4.458907439,-6.26143027,-5.262036515,0.673302486,2.248607109,-2.174484058,-8.148656573,-2.411404375,-0.402385366,-1.080325175
3.320373333,1.810227134,4.336885095,9.504453384,1.056466299,-1.232773645,2.682473049,10.77145137,6.264574228,5.557453874,-8.503770572,-7.114124348,-0.083017916,0.31923766,-3.101184177,-9.068310832,-3.195927294,-0.701574023,-0.248729731
3.808724561,3.156313732,4.428538351,-9.539702409,2.043542301,-2.901625499,1.994370605,9.980554767,7.014377903,6.642660771,-6.646081867,-7.492674295,-0.395774328,-0.485168741,-2.910432293,-9.720208214,-2.141113778,-0.497099807,1.000288685
4.120247457,4.328421453,4.704907294,-22.73284515,1.686049225,-4.486664231,-0.007749364,7.164479075,4.335643887,6.21667109,-2.57658085,-7.423746583,-0.843588309,-0.351851248,-2.156966469,-9.127400108,0.193336392,0.149348457,1.845763504
3.518529165,4.803717812,5.759797548,-26.02662727,0.027508544,-5.897291567,-3.280722656,2.731936472,-1.079294265,3.541826866,0.950850693,-8.405060394,-2.222529729,-0.084748198,-1.893278907,-6.580397266,2.615080937,1.180468241,1.854555387
1.833380872,4.866704187,7.724332912,-20.45265373,-1.932552791,-7.036409775,-7.04172113,-2.098473542,-6.76452726,-0.675837006,2.040997384,-10.98318933,-4.79909231,-0.487248501,-2.755044755,-2.404697569,4.033483485,2.455818666,1.247792005
-0.225768419,5.03652683,9.857742614,-9.773019233,-2.988368579,-7.790419821,-10.20749794,-5.977319584,-10.10964554,-4.627025806,0.425271153,-14.16721718,-7.98609929,-1.77526105,-4.39469881,1.930147119,4.034272547,3.585061718,0.579725074
-1.474847802,5.269775815,10.81803846,2.472497483,-2.679832657,-8.137531465,-12.09146228,-8.157555549,-10.00891413,-6.550649066,-2.93292447,-16.17813991,-10.69776335,-3.429109658,-5.749108822,4.525360142,2.948641092,3.914842853,0.162865313
-1.143279975,4.779820864,9.514341832,14.13200405,-1.664162495,-8.242323531,-12.80923463,-8.78524244,-7.38621258,-5.881430907,-6.728813417,-15.90578713,-12.084345,-4.557743825,-5.926278552,4.124661347,1.472875603,2.814899969,-0.220890171
0.450985964,2.715165242,5.938636938,23.55757221,-1.167574609,-8.391715033,-13.07506363,-8.588052089,-4.354066887,-3.595851718,-9.930892491,-13.85474197,-12.06866186,-4.492792543,-4.971944768,0.805131031,0.191089338,0.134898329,-1.065758258
2.0467057,-0.909783943,1.312303831,28.39536658,-1.928405315,-8.784035038,-13.57342001,-8.242604747,-2.765337482,-1.552854899,-11.90418974,-11.79348656,-11.30762562,-3.20502049,-3.87404989,-4.152237323,-0.663796564,-3.52010462,-2.593330528
2.377526586,-4.934456069,-2.640576152,25.8818814,-3.489149649,-9.351297195,-14.42850579,-7.907218128,-3.240162709,-1.318441,-12.36309756,-11.39288758,-10.67143741,-1.296124061,-3.795626072,-9.039393376,-1.137429008,-6.986129697,-4.430730689
1.189395722,-7.767628111,-4.807508497,14.77562376,-4.450506987,-9.794673264,-15.17941893,-7.232328153,-5.215835138,-3.249289219,-11.46142569,-12.94663234,-10.66560637,0.386008857,-5.157971098,-12.54248958,-1.348019362,-9.15220191,-5.831902738
-0.517420866,-8.527577985,-5.36682994,-2.772369432,-3.540047641,-9.826154195,-15.21404877,-5.766627948,-7.694590799,-6.347694114,-9.894129213,-15.15990917,-11.17846021,1.241978242,-7.30186285,-14.08075098,-1.36514657,-9.57246018,-6.26444204
-1.291197787,-7.610532117,-5.504205959,-21.33154566,-0.678073079,-9.407912708,-14.23359843,-3.387018047,-9.903270032,-8.861938586,-8.626585876,-16.11018423,-11.62594311,1.233074177,-8.965330033,-13.61127873,-1.234514592,-8.620651886,-5.84788277
-0.47333801,-6.176562525,-6.362965915,-34.62204192,2.808490332,-8.766326548,-12.34800353,-0.413297286,-11.36251138,-9.201127178,-8.172210401,-14.58646488,-11.29290406,0.856372834,-9.160614543,-11.29075259,-1.041761515,-7.081329777,-5.252944492
1.149157234,-5.020866326,-8.019899076,-38.63267871,5.028605854,-8.160581703,-9.793958841,2.634277134,-11.55045003,-6.673451119,-7.939690787,-10.81379834,-9.640540158,0.819648356,-7.756762397,-7.416482605,-0.893528254,-5.540871045,-5.143819269
1.897610324,-3.876473513,-9.272864354,-33.2185572,4.816830927,-7.623841713,-6.639842327,5.383436326,-9.761657409,-1.758305628,-6.384846922,-6.149895448,-6.500867126,1.599616161,-5.37773887,-2.687164666,-0.822835499,-4.110565155,-5.644341907
0.598521945,-1.817059689,-8.420801398,-21.26601537,2.520704084,-6.937450514,-2.836620596,7.764737663,-5.520434399,4.128511652,-2.14696372,-2.146253673,-2.193148655,3.120877182,-2.813535329,1.601940273,-0.741934133,-2.703525507,-6.279967129
-2.285232963,1.591717285,-4.482328051,-6.491049455,-0.271567969,-5.888445482,1.405664909,9.881802106,0.741557868,9.247135372,4.584226526,0.265802415,2.447506694,4.74226318,-0.501329495,3.867973273,-0.533612512,-1.5482545,-6.421957904
-4.765011626,5.484172933,2.00414399,8.17014913,-1.819919788,-4.58152124,5.321313132,11.76460534,7.443326229,12.28640089,11.65798913,0.982362887,6.241448227,5.590542824,1.51532589,3.081874577,-0.217357604,-1.346858915,-5.822504557
-4.701774623,8.078714159,9.12655308,20.54720954,-1.317314163,-3.492661546,7.777783246,13.25209582,12.48164965,12.93841769,16.08738634,0.416698218,8.110027578,5.083924475,3.223930235,-0.373633027,-0.013249553,-2.77112765,-4.769278083
-1.440839598,8.050202382,14.55138612,28.3601029,0.776556383,-3.160792116,7.93303607,14.0989567,14.41085841,11.98115886,16.02997169,-0.905265363,7.641878136,3.339359288,4.317272597,-4.539033972,-0.190284401,-5.632696695,-3.750489047
3.563261901,5.748822804,16.65216345,29.15324894,3.280199582,-3.74405307,5.870906229,14.17972634,13.29646933,10.75252876,12.1081749,-2.540526494,5.403894984,1.175526559,4.275593929,-6.731586085,-0.790851828,-8.495472512,-2.971258944
7.660003412,3.161130216,15.18519613,21.81808919,5.193608269,-4.821156114,2.650458481,13.58184997,10.53476547,10.26794506,6.952968978,-4.150793191,2.673917288,-0.35244322,2.810515971,-5.023600543,-1.479987847,-9.272108102,-2.189287692
8.806685723,2.534561622,11.26822464,8.590598046,6.258631377,-5.64129712,-0.356988728,12.50259803,7.74339167,10.54051742,3.259061065,-5.55095677,0.657145339,-0.630851586,0.253902487,0.56255767,-1.707890976,-6.565894363,-1.029840457
6.932276742,4.728400111,6.822479162,-4.647044251,6.844244942,-5.655741792,-2.374004334,11.06209446,5.603042429,10.61475042,1.888856662,-6.83652272,-0.307977268,0.070801982,-2.50833957,7.943217553,-1.117832262,-0.811012049,0.518180523
3.874496785,8.613123404,3.795046804,-10.95592363,7.389628737,-4.917842045,-3.66429635,9.222293504,3.58372504,9.354126437,1.551655188,-8.405922049,-0.945912673,0.734043374,-4.567189497,14.0611736,0.108692536,5.731727015,1.909542167
1.989711299,11.97739534,3.414853625,-6.619486193,7.934285245,-4.034254255,-5.172530407,6.889834623,0.745635848,6.432616976,0.266515797,-10.69112564,-2.432405959,0.262472255,-5.580118721,16.50624426,1.277448906,10.26498222,2.376152963
2.5042875,13.15915917,5.661990179,5.899028844,8.099315345,-3.711545171,-7.662922343,4.095760726,-3.112956093,2.752019258,-2.700246887,-13.69740583,-5.395495686,-1.744598163,-5.941000039,14.67910408,1.614017758,11.17194644,1.531245531
4.793493719,12.06590639,9.15510996,18.84606341,7.458113976,-4.261632638,-11.06286424,1.072033023,-6.988125775,-0.106302672,-6.126229965,-16.7411722,-9.297935528,-4.658378541,-6.38937662,9.855349038,0.805718914,8.921194198,-0.274686137
7.004724157,9.845762742,11.65732346,23.78379856,5.929662072,-5.43869152,-14.52164623,-1.84522312,-9.322640121,-1.031793886,-7.961854407,-18.71930251,-12.71215944,-7.180619562,-7.376758495,4.24721788,-0.760261055,5.510233701,-2.170721047
7.437005837,7.661057717,11.16867952,16.94165516,3.870563465,-6.684901309,-17.07687326,-4.375534816,-9.242030964,-0.249104801,-7.268870284,-18.81684561,-14.30457874,-8.158734241,-8.698896909,-0.240003381,-2.259243724,2.916490765,-3.392019594
5.625969955,5.739637849,7.138018016,1.592030726,1.840847637,-7.530382084,-18.32121073,-6.342213582,-7.316474726,0.821603022,-5.20451367,-17.12449412,-13.76848209,-7.286131169,-9.671947065,-2.788409502,-3.001872045,1.773678789,-3.799414124
2.446768213,3.52109221,1.026925606,-14.23378423,0.284194123,-7.809589689,-18.50746542,-7.55852968,-5.177001963,0.651730073,-4.11800084,-14.62278613,-11.96845321,-5.204310771,-9.680263092,-3.648301926,-2.881234219,1.261920513,-3.866751778
-0.646394104,0.64365045,-4.323663481,-23.04455427,-0.619063898,-7.572557082,-18.06265474,-7.695702054,-4.278108482,-1.186105741,-5.502045682,-12.47282366,-10.18268619,-2.966446708,-8.633475905,-3.54782482,-2.356598273,0.185075089,-4.166565495
-2.549666078,-2.268061147,-6.322429311,-22.45677164,-0.86792835,-6.86505286,-17.01588819,-6.337253029,-4.811370752,-3.631987482,-8.580878815,-11.14446452,-9.051519439,-1.284772143,-6.972541989,-3.054073527,-2.003655257,-1.748394906,-4.807853987
-2.961859704,-3.841093792,-4.259962698,-15.9651015,-0.474613482,-5.648713707,-14.90453182,-3.265874057,-5.632156691,-4.876984377,-10.78910812,-10.08709755,-8.071841169,-0.116476673,-5.256594283,-2.291240419,-2.002695615,-3.537610988,-5.307318849
-2.225270913,-3.0508212,0.2103213,-9.707439586,0.600617877,-3.952147235,-11.26558011,1.218549251,-5.204809564,-3.637108615,-9.761759356,-8.223940477,-6.032934578,1.142458837,-3.707673322,-1.070070816,-1.978066112,-3.690829141,-4.993835842
-0.895303176,-0.170431691,4.173845508,-7.834283048,2.365488458,-2.075364467,-6.266588584,6.248592962,-2.751148485,0.024275198,-5.158961814,-4.875990504,-2.040636439,3.052540595,-2.105763091,0.799775354,-1.315156616,-1.496926571,-3.593432404
0.554121163,3.329956644,5.422758393,-9.818504059,4.664994381,-0.583897202,-0.884802092,10.72934964,1.303342485,4.897993248,1.17062351,-0.376390704,3.66732707,5.597251648,-0.113357212,3.280152989,0.300461178,2.322975978,-1.504514498
1.773256517,5.885613021,3.887890616,-11.33708086,7.134301186,-0.018742513,3.566185514,13.86779648,5.817525419,9.567422801,6.708356813,4.0856249,9.713296907,8.107236179,2.261722051,6.06803394,2.54971136,6.109751261,0.44994918
2.504260006,6.973124377,1.501813526,-7.705237671,9.273102737,-0.536911779,6.190615581,15.50156813,9.784423699,13.23307161,10.05282424,7.206871293,14.33513115,9.660063831,4.47709482,8.696974545,4.615775785,8.449877109,1.57283499
2.659117133,7.282812272,0.646597736,2.74522849,10.58135165,-1.802587571,6.934170072,15.9724565,12.75249385,15.77421483,11.44646665,8.274708136,16.31670702,9.636351791,5.730145273,10.67446759,5.691358931,9.046042679,1.707330607
2.461006767,7.823127142,2.413822504,17.51054364,10.68660875,-3.25231105,6.366872736,15.65960687,14.5511832,17.155203,11.77653418,7.341627743,15.47155582,8.051753509,5.508236103,11.6078481,5.488466614,8.610064484,1.234227925
2.424933565,8.83873809,5.993283221,31.33408183,9.449939512,-4.52552038,5.07713587,14.58068491,14.78635209,16.89937963,11.22822942,4.911241176,12.49099349,5.499968134,3.998074116,11.3215811,4.398215146,7.998208811,0.73053909
3.054290947,9.579903626,9.539562888,38.89613692,7.062977377,-5.68962803,3.242424583,12.41939516,12.79986035,14.26620736,9.036065143,1.584326666,8.449174643,2.82511543,2.033725627,9.949697387,3.217318211,7.439961154,0.604619134
4.42686656,9.131288153,11.65676533,37.07841292,4.095153563,-7.058939362,0.733529764,8.966027613,8.286035682,9.055665521,4.624585839,-1.982674697,4.38948707,0.77122695,0.602911732,7.938702966,2.658618589,6.543250861,0.958379993
6.028365742,7.467406671,12.21119172,25.89688747,1.386351401,-8.769421155,-2.414936807,4.574480904,2.005938497,2.282062691,-1.046105715,-4.918622086,1.165396884,-0.221632503,0.252028378,5.905284978,2.976065112,4.980240816,1.672058332
7.041637014,5.643502847,11.87691497,8.225068705,-0.27653168,-10.5020147,-5.684112412,0.185496175,-4.214521917,-4.045128057,-5.470895065,-6.209817679,-0.61110272,-0.066038375,0.795985077,4.385445128,3.907629828,3.103137003,2.527592322
6.915518354,4.835522613,11.00546683,-11.14374449,-0.587766847,-11.62886181,-8.267020375,-3.187019433,-8.463795473,-8.068239128,-6.282532991,-5.233852158,-0.716150288,1.004017556,1.514022048,3.612019092,4.903090238,1.815978465,3.238582877
5.76529923,5.086068377,9.020965751,-26.77351227,0.024146716,-11.6832389,-9.640851179,-5.138369174,-10.04987689,-9.340184275,-3.30047832,-2.421560867,0.477419998,2.50588295,1.673542927,3.461300753,5.442673489,1.761845726,3.443197839
4.267164933,5.007881833,5.020220237,-34.1668702,0.574926296,-10.75426395,-9.986451352,-6.162378109,-10.04233452,-9.160126268,0.966387914,0.63704937,2.001460397,3.850789846,1.015318456,3.593923065,5.258059424,2.588306219,2.809887456
3.128819917,2.904007876,-0.932354942,-31.44833716,0.122393356,-9.454000331,-10.02752666,-7.256160232,-10.46812513,-9.605943472,3.09208726,2.01991614,2.713310602,4.570646897,-0.11128927,3.673748183,4.38654399,3.055375072,1.283739293
2.581638421,-1.556567378,-7.093357383,-20.45098147,-1.567850948,-8.465763157,-10.37624237,-9.084972067,-12.67203977,-11.91199286,1.500075235,0.808828407,1.98336924,4.5455431,-1.016033517,3.507556592,3.100914399,2.014110225,-0.714370839
2.316161039,-6.613840125,-10.79250571,-6.320511187,-3.766575551,-8.044689507,-10.93705528,-11.32524966,-16.11725964,-15.40636114,-2.104689061,-2.089181847,0.165654181,4.076250201,-1.123973532,3.043542122,1.786643086,-0.540119145,-2.386100632
1.886323495,-9.456495991,-10.25403122,4.651531012,-5.173824292,-7.885559427,-10.90719016,-12.7063803,-18.64173155,-17.84679439,-4.009732508,-4.432368844,-1.577511926,3.707003618,-0.309528674,2.303325459,0.805778835,-3.287926639,-2.994840677
1.192781345,-8.336074299,-6.051703135,8.105453576,-4.738342861,-7.457622553,-9.414656814,-11.76895866,-18.05403752,-16.95715644,-1.586469833,-4.253084813,-2.05863027,3.880550439,1.082663801,1.36450683,0.364098466,-4.528249566,-2.368931028
0.597895341,-4.047289548,-0.915527149,3.891821552,-2.347457543,-6.507280271,-6.282841505,-7.835124604,-13.85664601,-12.07169244,4.335078333,-1.412249798,-0.905778759,4.655588593,2.492709208,0.417713914,0.41920695,-3.521942836,-1.061816751
0.576381622,0.523949678,2.098219125,-3.935512692,1.097340967,-5.294922375,-2.288673703,-1.538371299,-7.739200219,-4.721993624,9.886733678,2.172436268,1.191869872,5.693207043,3.469837487,-0.204753059,0.694944365,-1.124522645,0.013753664
1.242564935,2.523476965,1.697790224,-9.581140874,4.262858397,-4.374858482,1.302650981,5.421514648,-2.433919287,2.223126551,11.18295911,3.929582727,3.047993162,6.52178351,3.856836185,-0.144505073,0.838669893,0.851022464,0.236288479
2.212593764,1.253674987,-0.924426426,-9.01631503,6.194336365,-4.127629356,3.551164742,11.10968163,0.191259952,6.244279864,7.535699185,2.663810262,3.921679437,6.874311713,3.76504259,0.747877376,0.662213975,1.052651975,-0.292080021
2.945498433,-1.408870329,-3.268408059,-2.380542422,6.784300685,-4.458728302,4.367831991,14.2440068,0.345393047,6.557657051,2.201900584,-0.370478338,4.090557115,6.840375056,3.430103843,2.249716463,0.314627129,-0.355223971,-0.882944833
3.249269233,-2.619761061,-3.571221065,6.235222854,6.625519047,-4.914170579,4.393149158,14.6574931,-0.047180957,4.37294544,-0.025265819,-2.254914562,4.594673195,6.733383454,3.095339137,3.873535575,0.24032003,-1.847081193,-0.857632066
3.46529905,-0.855298003,-2.012381744,11.49720018,6.449062559,-5.087956183,4.417329391,13.18588458,1.077393089,1.995336675,3.509551131,-0.520114642,6.358296185,6.807610138,2.993712346,5.234215418,0.907366225,-1.754457787,-0.104880585
4.128441989,2.983063077,-0.146532762,10.32374448,6.6200779,-4.948143835,4.86436875,11.16567333,4.38822366,1.440642132,11.31113767,4.997001781,9.39500787,7.069639396,3.372500815,6.398756793,2.465392121,0.453429202,0.865227203
5.390363221,6.47414722,0.812158019,3.949769242,7.036506631,-4.802007579,5.714969519,9.851788363,8.788192192,3.40175599,18.94153223,11.94876751,12.72321649,7.326360639,4.447888123,7.873521876,4.572770223,3.829921472,1.40176204
6.740053661,7.721779153,1.239913653,-2.782377973,7.397097305,-4.959288571,6.79324428,9.980804905,12.34430409,7.058305233,22.39607111,17.05020197,15.03904934,7.39526833,6.247582539,10.13316546,6.537782665,6.739159462,1.292333157
7.317957451,6.768991355,2.714892384,-4.529018103,7.518218101,-5.422205959,8.027281718,11.56749338,13.67449435,10.68990693,20.91702792,18.22059285,15.59839033,7.267572221,8.439704415,12.99984616,7.700811701,8.044007272,0.918710268
6.597372622,5.249264769,6.308567384,0.951225713,7.415267212,-5.889938307,9.396637137,13.95248411,12.73147175,12.67357347,17.11564574,15.73581074,14.63232121,7.076187866,10.32509028,15.39960824,7.802392738,7.720566082,0.843276426
4.863832879,4.716771334,11.11259114,10.9944993,7.14833474,-6.060935515,10.67020129,16.10041418,10.55444388,12.34602501,14.56050031,11.69296356,13.0372429,6.914172519,11.09531694,15.82031098,7.079621125,6.510965871,1.197597279
3.073973447,5.217972293,14.44229371,19.31846765,6.670165787,-5.93544063,11.3080649,17.0861591,8.414121711,10.33298644,14.99226395,8.399625879,11.66769375,6.692510769,10.26322753,13.27336634,6.025055308,5.079934907,1.44339563
2.195290088,5.376039856,13.75448797,19.80829461,5.879905459,-5.822931794,10.76384923,16.57607397,7.128354133,8.190374354,17.40771903,6.997914264,10.8261084,6.188067011,8.003241472,8.114753454,4.991693272,3.504990156,0.770011226
2.561375412,3.857470601,8.806913778,10.56121154,4.82913166,-6.039997468,8.996863356,15.0217803,6.967097168,7.506383803,19.4849566,7.233966818,10.30036683,5.251059118,5.144334656,2.091022036,3.946380347,1.521781936,-1.165241932
3.74486928,0.84242207,2.264198937,-4.411323012,3.82128016,-6.580821563,6.707167028,13.38248611,7.929573371,8.907180039,19.8215091,8.23514947,9.797834999,3.986140667,2.764867021,-2.515304027,2.565431486,-0.815478043,-3.775480888
4.990895086,-1.873438912,-1.876063992,-17.13377218,3.219322518,-7.077758275,4.967017345,12.48709587,9.88810087,11.54420297,18.94290463,9.395484812,9.311809251,2.736125649,1.611791481,-4.122198101,0.604280832,-2.796512312,-5.789268415
5.785234643,-2.285576008,-0.948869969,-20.30601853,3.080116892,-7.107025041,4.443834045,12.44496923,12.38394715,13.45761095,18.34002278,10.58913672,9.082664502,1.869675476,1.706692755,-2.661594817,-1.747488235,-3.454989234,-6.066176477
6.06977457,0.11435571,4.57543654,-11.82527861,2.972393518,-6.57299857,4.834236867,12.55176647,14.3835832,12.71177068,18.64466131,11.71186631,9.232895518,1.547678029,2.394047037,0.535659601,-3.821926929,-2.391557587,-4.380521293
5.998508986,3.820896039,11.44144809,3.738271156,2.243580331,-5.82006226,5.040423726,11.82110536,14.49268906,8.656159216,18.78123967,12.21792874,9.471277037,1.661655288,2.799909136,3.633732266,-4.814024471,-0.25738479,-1.586835494
5.578337881,6.444781167,15.77738692,17.79423028,0.610827254,-5.356274955,4.039109815,9.802151798,11.74769182,2.482211468,16.94536191,11.27365769,9.198321892,1.986536662,2.403629176,5.308524654,-4.290345971,1.606690936,0.942058694
4.628778921,6.539890354,15.46906902,22.89914297,-1.403155001,-5.420555638,1.790243546,7.081480991,6.490931299,-3.36052155,12.51650463,8.483176322,7.973813748,2.406265162,1.365949181,5.243574274,-2.50150744,2.140856743,2.172403048
3.138241171,4.611608504,11.14464209,17.11016838,-2.638994077,-5.772454825,-0.564293944,5.051121475,0.577282859,-6.565725878,7.11017429,4.516854194,5.966102934,3.015930522,0.433812799,3.934981523,-0.254764699,1.357181614,1.954312343
1.637544534,2.534223581,5.349535613,4.729248578,-2.07219914,-5.89553079,-1.433108449,5.048314044,-3.441112204,-6.277674899,3.709552042,0.985257972,3.990642542,4.020516522,0.515693806,2.151065813,1.588660645,0.293167631,0.940540909
1.111287448,1.968962938,0.794559813,-6.878730338,0.342531611,-5.445622336,0.081531128,7.447844406,-3.731877478,-3.441276169,4.504229564,-0.460314659,3.065851207,5.52768843,2.198120773,0.537574692,2.650977091,0.176852317,0.050385902
2.358796865,3.160605818,-1.005536175,-12.03173197,3.431929855,-4.560847898,3.495576517,11.34468055,-0.268439579,-0.013186609,9.197631745,0.858543158,3.791409888,7.41318573,5.455994028,-0.427804707,3.231842473,1.508604382,-0.075192031
5.264103004,5.054112284,0.005644004,-9.750077694,5.443695805,-3.76897487,7.234451081,15.05119553,5.160238251,2.339212315,15.15189595,4.286722428,5.981634858,9.360404401,9.651781744,-0.328760578,4.018392183,3.799096119,0.707657571
8.624485718,6.462513624,3.000090102,-3.241804227,5.170342749,-3.573645599,9.674405032,17.0626476,10.01021596,3.110545176,19.21020524,8.351369203,8.78371434,11.0224949,13.76160684,1.128189835,5.517308997,6.104346507,2.15693657
10.79819199,7.135130021,6.926055125,3.239564104,2.759850064,-4.070547364,10.14831886,16.84516287,12.38313799,2.87233476,19.72228491,11.68198534,11.16402205,12.16708312,16.70708899,3.820591526,7.619125351,7.815255291,3.858920361
10.76041598,7.775523835,10.78119205,7.433562706,-0.382048961,-4.907291858,9.204584346,14.97591313,11.88227668,2.479951812,17.28358909,13.62176284,12.42732145,12.70876634,17.69684546,6.981627962,9.613782177,8.995150215,5.357567168
8.777666096,9.096608064,13.62018173,9.723156512,-2.527896163,-5.598532627,8.019605685,12.64605594,9.512696275,2.32461638,13.87841444,14.19357412,12.47399649,12.65229546,16.50911114,9.404742302,10.65207742,10.03295301,6.211595327
6.174140972,10.89453449,14.68728586,11.35383527,-2.722685197,-5.910736251,7.495141164,10.93951945,6.883533598,2.220136721,11.37793412,13.67903713,11.71399017,12.03915038,13.63011154,10.10906709,10.32531462,11.03154131,6.104357677
4.37291926,12.06628905,13.78520455,12.27430145,-1.27407633,-5.993603287,7.726683312,10.34747733,5.319676515,1.873701598,10.61976798,12.32319997,10.75637116,10.95216969,10.14471756,9.02442195,8.951205216,11.57531835,5.035137445
3.961387224,11.57693948,11.54030549,10.82295279,0.632914964,-6.17501404,8.141362883,10.70532555,5.347079419,1.363497643,11.50346449,10.40035924,10.06397435,9.542062809,7.3396998,7.110460553,7.368630883,11.12381111,3.437778742
4.479664421,9.474683169,9.145930145,5.625371572,1.815446766,-6.629461811,8.051591272,11.42359038,6.633141698,1.099049541,13.55478011,8.403966649,9.723386612,8.002839401,6.142289302,5.706607485,6.396677753,9.647269231,2.035160999
5.014267125,6.995044866,7.603405998,-2.147679896,1.785524414,-7.218637351,7.119270734,11.77866816,8.217897998,1.301272102,16.18121341,6.964507572,9.413779912,6.484588029,6.67576729,5.54611103,6.34340512,7.858535652,1.434275807
5.028920155,5.629589653,7.01969849,-8.564383763,0.825298671,-7.624378476,5.427495056,11.14780256,8.898451028,1.567345929,18.47117045,6.423224106,8.599277964,5.024115329,8.217459111,6.213422087,6.892678347,6.757060123,1.730700905
4.72765373,5.979363407,6.594242946,-9.457816468,-0.446195268,-7.625522963,3.258590487,9.218324004,7.741297226,1.063129511,19.11153388,6.45329184,6.889040461,3.586043357,9.631954451,6.530687167,7.407494207,6.852308313,2.452193321
4.710623233,7.398381884,5.387041617,-3.853217446,-1.548272134,-7.257136288,0.890112022,6.190016022,4.645201539,-0.700739147,16.98057011,6.206790048,4.393749069,2.204933061,10.03940238,5.611184472,7.392067714,7.761215271,2.925177416
5.315403706,8.696866836,3.255727236,4.663187478,-2.28117739,-6.723606239,-1.414637196,2.846753321,0.662629898,-3.179098643,12.18006397,5.014722529,1.83128575,1.094089486,9.294260905,3.721326284,6.772781947,8.556226247,2.786312293
6.274458148,9.205731161,1.133430309,10.15665931,-2.556920885,-6.17764158,-3.333797159,0.307262356,-2.30467182,-4.919128558,6.528475898,3.074317807,0.216230467,0.575666599,7.957683173,2.180602069,5.834874494,8.556278376,2.21419604
6.975585927,9.199718696,0.336634802,8.724381401,-2.239468659,-5.595256592,-4.558181433,-0.56139749,-2.525726612,-4.596442535,2.719777126,1.42789145,0.231483565,0.832431513,6.796508522,2.287550811,4.930262238,7.836476485,1.684031467
7.028355479,9.314209746,1.42673538,1.642309563,-1.245278576,-4.866788624,-5.045604325,0.243541978,0.317963024,-2.218249589,2.469310525,1.093423529,1.669023298,1.670505842,6.184527313,4.098309715,4.226588548,6.986744016,1.470247036
6.563613227,9.572943524,3.574820707,-5.380699121,0.189044839,-3.998898007,-5.211640314,1.711280465,4.56097366,0.545888795,5.051253925,2.015530997,3.388491204,2.532113183,5.85330287,6.096160752,3.687702178,6.361523506,1.359900859
5.974462613,9.04803494,5.005620168,-6.483941832,1.418897048,-3.202989927,-5.755350354,2.40060679,7.29448002,1.369287129,7.59210083,2.817360593,3.948530944,2.826541877,5.173359098,6.146740051,3.248850154,5.576016088,0.859388564
5.370968417,6.602493734,4.223906575,-0.230785819,1.714366651,-2.750400989,-7.111696604,1.482185091,6.181769869,-0.985971963,7.16518626,1.767046461,2.572829161,2.372643735,3.737404267,3.106649131,2.97944849,3.816708191,-0.279252189
4.326293655,2.123085093,1.089317391,9.11709529,0.820312208,-2.708292518,-8.923303197,-0.490016691,1.207543485,-5.479473721,3.169234888,-1.67838426,-0.209798237,1.602224583,1.779824013,-2.135946382,3.056413159,0.773994539,-1.707513945
2.236071258,-2.903082611,-3.067591881,14.68970566,-0.728281625,-2.810063613,-10.03721234,-1.751308963,-4.951115671,-9.183410444,-1.94791631,-6.026441367,-2.765943621,1.313004671,0.089254057,-7.053575883,3.565893989,-2.65056953,-2.674407022
-0.981289218,-6.13665506,-6.331615568,12.11285811,-1.900297701,-2.618094743,-9.181494589,-0.484473193,-8.40812938,-9.160781179,-4.350773601,-8.466970577,-3.34470496,2.102414713,-0.536109412,-9.104007659,4.330647083,-4.630066089,-2.647047756
-4.494882274,-5.994387697,-7.386968902,2.729203329,-1.93831758,-1.878577456,-5.906538562,3.775387886,-6.559821992,-4.59080578,-1.671959317,-6.800201401,-1.207683426,3.890780733,0.11974805,-7.430564165,4.958487323,-3.644572525,-1.820265714
-6.922104683,-2.850874741,-6.159760405,-7.429686578,-1.009199395,-0.777010763,-1.073030576,9.536022867,0.089226543,2.388891515,5.159418127,-1.15958721,2.888384942,5.913189975,1.509162653,-3.392580164,5.118488204,0.260832046,-1.024235973
-7.235397021,1.178949263,-3.599307708,-11.97338471,-0.150784568,0.141400296,3.559617858,14.10697461,8.084419884,7.820334483,12.56370034,5.863407203,7.20268834,7.220057686,2.700283985,0.454239328,4.837011192,5.264768377,-1.04626656
-5.499590812,3.759177372,-0.950802201,-8.433014029,-0.466363207,0.353190381,6.411806764,15.30213001,13.12957355,8.357019678,16.89683366,10.90878456,10.14128077,7.332037598,3.041296708,2.150364256,4.555697465,8.906951095,-1.920054348
-2.8189265,3.975611621,0.867548262,0.523995831,-2.165935823,-0.251790776,7.047646279,12.90721413,12.7282701,3.366986637,16.89819513,12.13826519,11.18606341,6.560523809,2.612562961,1.56496093,4.86323786,9.78080142,-2.814793728
-0.516326365,2.826389839,1.452241749,9.367442136,-4.255574223,-1.285391348,6.291764477,8.816452984,7.555932069,-4.720422843,14.10668895,10.39293604,10.97384832,5.747835316,2.125249751,0.201990162,6.070919604,8.481674123,-2.673281407
0.78939317,2.230415284,0.800334421,13.30469432,-5.213016958,-2.161837259,5.40894195,5.668874392,0.67254063,-12.05605769,11.0953089,8.335326382,10.53864108,5.618657556,2.339720003,-0.177105125,7.938635158,7.051599741,-1.099453933
1.463216217,3.411609223,-0.79056347,10.51978376,-4.193394055,-2.55432898,4.994074181,4.926124328,-4.775830053,-15.87925632,9.181248388,8.262807073,10.36067634,6.226794681,3.438594436,1.010653599,9.758987104,7.340190206,1.250795812
2.304461986,5.964532608,-2.705904751,2.02448276,-1.826327876,-2.649523288,4.45792835,5.789393891,-7.685934721,-16.20342739,7.604949916,10.3154146,9.97709401,6.903958587,4.826610305,2.783215638,10.74843188,9.564078381,3.128177125
3.69281885,8.278873772,-4.081077776,-9.789483909,0.079701307,-2.997485362,2.529409796,5.776942809,-9.483914923,-15.58402108,4.784181473,12.46835493,8.431300585,6.737451651,5.514733364,3.496369411,10.47853811,12.18395418,3.635833223
5.194957495,8.86754397,-4.157856177,-22.15643346,-0.220379582,-4.067926348,-1.610429018,2.575457949,-12.74428383,-17.196605,0.374441859,12.26734017,5.166572932,5.219787946,4.813800652,2.262772909,9.069696059,13.15871518,2.878764757
5.960963668,7.463556095,-2.804076955,-31.93673856,-3.126471093,-5.846978707,-7.455364788,-4.169001723,-19.05192889,-22.58240279,-3.851716895,8.889626985,0.63762916,2.612408463,2.833303828,-0.254720473,7.057906069,11.5456074,1.780449556
5.521598175,5.047580698,-0.754239783,-35.62813446,-7.35347949,-7.774565178,-13.2643341,-12.42739925,-27.67851988,-30.59456727,-5.233843822,3.892247011,-3.836160745,-0.199203645,0.422532947,-2.285908138,5.072872787,8.175861417,1.243604594
4.240118835,2.917836985,0.774747393,-30.63064311,-10.81775038,-9.068119999,-17.08294302,-19.04777831,-35.96227254,-38.2111542,-2.582168072,0.091021471,-6.848511693,-2.214729726,-1.401327196,-2.265495336,3.558237513,4.919638045,1.394090827
2.994486572,1.675106034,0.923920187,-17.52899325,-12.09730665,-9.203603603,-17.96174118,-21.79529018,-41.02678445,-42.589811,2.396185442,-0.500497276,-7.721696252,-2.830307739,-2.121202134,-0.000123819,2.674681534,3.196223721,1.562362627
2.374987729,0.954132399,-0.164634392,-1.440443679,-11.37021574,-8.227600929,-16.50155267,-20.72127416,-41.58093769,-42.91325538,5.966489524,1.950754875,-6.787631433,-2.054194529,-2.004261683,3.166409188,2.35809824,2.949335285,0.993961182
2.136352441,0.00375412,-1.506426758,9.566282215,-10.1368946,-6.706655311,-14.36709063,-17.92731366,-38.59533137,-40.76468663,4.993526038,5.410162865,-5.010209226,-0.378872224,-1.813828044,5.256012865,2.410368369,2.863642184,-0.377271589
1.426416696,-1.510685101,-2.200589672,8.880450977,-9.966339747,-5.368329764,-13.15373063,-15.96634448,-34.51438,-38.82613501,-0.703490846,7.616831255,-3.310714516,1.5212017,-2.188167349,4.916992361,2.544225136,1.557964027,-1.822170286
-0.38730683,-3.214303722,-2.370877219,-4.127029836,-11.24534205,-4.676445812,-13.40922092,-16.07797437,-31.65619225,-38.86883063,-8.123042319,7.69441166,-2.105433185,3.059884618,-3.16622585,2.152655129,2.415700154,-1.269125726,-2.501625858
-3.027965523,-4.425963362,-3.235238241,-22.92764465,-12.88560206,-4.600174132,-14.43071485,-17.50287675,-30.89410022,-40.48420075,-13.14831885,6.516765047,-1.306717231,3.886361636,-4.210798401,-1.881814243,1.728567209,-4.644160045,-2.329310329
-5.395251206,-4.794441613,-6.076757744,-37.36246633,-13.18993112,-4.697436432,-14.87058126,-18.27179671,-31.39189556,-41.45635133,-13.29017156,5.704039226,-0.640074465,3.940062505,-4.678439006,-5.701858452,0.423728707,-7.133186101,-2.186554854
-6.388906411,-4.539031605,-10.85063149,-39.7352157,-11.19176248,-4.441017504,-13.65498562,-16.78680679,-31.40521557,-39.49200911,-9.05443729,6.215932238,0.068751845,3.463111238,-4.327284483,-8.257409606,-1.161194509,-7.903604116,-3.202861522
-5.771139352,-4.096185093,-15.60775342,-29.27962041,-7.443187651,-3.583506977,-10.60444062,-13.00353488,-29.51695165,-34.04532784,-3.087603613,7.721280697,0.854438949,2.953020346,-3.42990127,-9.16773938,-2.327498791,-7.150689909,-5.657187979
-4.317573312,-3.562759935,-17.39696742,-11.97796803,-3.673132147,-2.345510512,-6.449965086,-8.411564003,-25.51975855,-26.9052365,1.972611909,9.155888926,1.750764492,2.99711681,-2.4001741,-8.479748248,-2.310451805,-5.633483638,-8.461308933
-3.122238284,-2.518698403,-14.16952925,3.771023981,-1.598463141,-1.314744256,-2.369641034,-4.942168772,-20.48895565,-21.10597975,5.14453256,9.844314695,2.874308889,3.992940761,-1.280273,-6.361552655,-0.704933358,-3.853609522,-9.76846448
-2.667860873,-0.442174508,-6.347589519,12.13532898,-1.780225992,-1.105826138,0.59049298,-3.682524388,-16.11243392,-18.93200595,7.106871717,10.13899734,4.317889309,5.884094055,0.406594317,-3.062869187,2.238863074,-1.673099152,-8.32514656
-2.485160251,2.644626433,3.143744244,11.944161,-3.335478083,-1.971001793,1.904004357,-4.314051139,-13.73119856,-20.43405814,8.91870201,11.03242454,5.957554845,8.102075134,3.218288346,0.905650442,5.661366198,1.293143129,-4.523764038
-1.705004956,5.905843589,10.50303729,5.169380408,-4.648467899,-3.594001429,1.667870263,-5.564416128,-13.62654997,-23.48448879,10.82489756,13.13855564,7.409172182,9.81233672,7.081883522,4.703677704,8.481970968,4.91812215,-0.29363788
-0.005463513,8.096695213,13.25545072,-5.830818691,-4.506514449,-5.207269502,0.49411653,-6.202610909,-14.89838035,-25.27419006,12.2306654,15.9887786,8.256105463,10.36005659,10.95057786,7.440140429,9.90558314,8.20179291,2.134575873
1.917595196,8.358217648,11.54074928,-19.30569011,-2.84313075,-5.985239936,-0.718436724,-5.791434134,-15.95854865,-24.13626633,12.70932148,18.2904716,8.40617755,9.649477008,13.27332912,8.664575317,9.747973397,9.733032909,1.669260918
2.828242982,6.777227858,7.680501121,-32.66211642,-0.632472075,-5.491159792,-1.091942877,-4.720493395,-15.37016542,-20.42355987,12.90360797,18.93990429,8.2691393,8.206358142,13.07785543,8.654395883,8.408258201,8.667317332,-1.066884233
2.009879454,4.278707056,4.451856716,-40.8711905,0.881005793,-3.910591956,-0.120180362,-3.66053211,-12.61091219,-15.95091387,14.28586043,17.91934052,8.544410483,6.870165103,10.87065806,8.189566688,6.551460562,5.431514331,-4.391162568
-0.007741586,1.961154956,3.341257571,-37.68854381,1.006316441,-1.933787153,2.048947058,-2.991420418,-8.380712496,-12.5982669,17.82974766,16.30371917,9.711051962,6.304299362,8.539160562,7.940655944,4.737268981,1.553794444,-6.841508479
-1.731257789,0.408562578,3.924405745,-20.0762693,-0.069035632,-0.372788627,4.57120974,-2.667858659,-4.296092531,-11.20872407,22.72291662,15.35796379,11.57330237,6.627445733,8.120657738,7.971514008,3.228826988,-1.288252943,-8.045062803
-1.833726904,-0.524483165,4.603187552,7.398216256,-1.573974458,0.237764882,6.212147847,-2.534720648,-2.120657686,-11.52599166,26.3491277,15.46940836,13.21486082,7.381566888,10.22179816,7.806385568,2.056245911,-2.2907979,-8.56532191
-0.234577628,-1.382847981,3.97333473,32.59960799,-2.751400273,-0.17832917,5.915023632,-2.702437906,-2.921362192,-12.97689306,25.78453415,15.79125408,13.44158239,7.833279132,13.29759228,7.030801507,1.220286133,-1.874085267,-9.014156086
1.765900313,-2.587545537,1.788624728,41.86708278,-3.303730127,-1.334820515,3.348996647,-3.574059951,-6.578050292,-15.42432378,19.80803871,14.88083144,11.45113676,7.409251333,14.5022211,5.885521906,0.837737622,-1.170671567,-9.306149342
2.441307625,-4.147309043,-1.048267378,28.70246258,-3.432931192,-2.819621562,-0.878268511,-5.465041659,-11.87859793,-19.14984801,9.951981486,11.81328824,7.31421246,6.012753408,11.68147949,5.24549626,1.100192511,-1.126878581,-8.736199728
0.945965887,-5.752871795,-3.260540291,-1.148903255,-3.549606515,-4.27321259,-5.479963402,-8.150957934,-17.11278033,-24.11721184,-0.203665248,6.902700427,1.98840625,4.06740998,5.129199928,5.871752711,2.079089877,-1.925928033,-6.781544637
-2.045035749,-7.058775456,-4.050971885,-32.5233905,-3.924146992,-5.416268442,-9.076388926,-10.77307897,-20.82246782,-29.29652223,-7.016759976,1.52720225,-3.104387385,2.299733584,-2.243127204,7.504464698,3.540789872,-3.092448516,-3.862167504
-4.839196328,-7.857921413,-3.451364711,-50.16471464,-4.517312866,-5.999249781,-10.77356626,-12.24954476,-22.31953119,-32.83476703,-8.695193736,-2.711040179,-6.654778358,1.39879837,-6.597270536,8.637027672,4.942844179,-4.046908689,-1.316746931
-5.942344938,-8.042445662,-2.072972264,-48.08357434,-5.046085016,-5.814484543,-10.42985926,-11.92198183,-21.75566027,-33.12018419,-5.929141427,-4.784662147,-7.88270188,1.723972655,-5.621319435,7.369693366,5.661370984,-4.556911398,-0.533178526
-5.027828868,-7.4948442,-0.597301575,-32.24547709,-5.179855311,-4.82049797,-8.523094081,-9.961732067,-19.7964027,-29.94656081,-1.010081084,-4.446206416,-6.649626044,3.180105547,-0.025383036,2.871475891,5.331676149,-4.720910798,-1.914960033
-2.958962648,-6.1088582,0.576075631,-14.88076445,-4.721823867,-3.27132964,-5.773690357,-7.232249341,-17.14973254,-24.7906806,3.779576131,-1.882596521,-3.334850051,5.289444685,6.990208355,-3.629194318,4.08495543,-4.603273179,-4.528836283
-0.957276446,-3.960527201,1.355406363,-5.081882874,-3.690498656,-1.682533394,-2.786964928,-4.711469566,-14.22831212,-19.87819355,7.377875351,2.65835448,1.355661546,7.405043201,11.89646055,-9.203690122,2.507348117,-3.962996796,-6.732188649
0.336941732,-1.437033665,1.79049732,-3.007266941,-2.293979462,-0.579441085,0.09790998,-2.896149684,-11.09909704,-16.69752586,10.08799772,8.8107649,6.533256404,8.959623955,13.05115271,-10.87181804,1.317197196,-2.399230884,-7.29233837
1.166398691,0.882285393,1.960429354,-1.827945764,-0.830532346,-0.174616483,2.740167363,-1.600008853,-7.689684171,-15.09994716,12.80178465,15.67361463,11.23057561,9.641383588,11.4097504,-7.486764249,0.947913167,0.195201481,-6.141963076
2.17607737,2.579367139,2.037334326,4.824862647,0.441006063,-0.22557001,5.038347894,-0.246211042,-4.082243034,-13.67818618,16.00560556,21.58848919,14.54154798,9.434915498,9.364477318,-0.539885929,1.30597773,3.315501683,-4.248119544
3.662736099,3.722973298,2.434061072,16.47921792,1.409692915,-0.215526474,6.827622611,1.603903866,-0.692044456,-11.09985486,19.2677771,24.61857336,15.83449291,8.540456378,8.763875717,6.713941251,1.875381664,6.026063369,-2.794544689
5.235929188,4.870723516,3.826027055,25.85895534,2.142986616,0.25128472,7.898659053,3.882453186,1.79965582,-7.318239687,21.47219825,23.63736826,14.97381366,7.24580912,9.697519948,11.22212378,2.11024253,7.573293089,-2.373710802
6.15627925,6.688907247,6.904410003,25.08332403,2.808509941,1.135377415,8.099790862,6.044909255,2.74935087,-3.704592842,21.56390798,19.28381824,12.41707197,5.832340417,10.88803694,11.83913386,1.848213611,7.957989829,-2.774003694
6.015463671,9.445340745,11.91839185,12.57943386,3.524828733,1.978232187,7.435088811,7.430430819,1.94049496,-2.027435613,19.30583881,13.9362503,9.084231625,4.545322426,11.16450328,9.656433005,1.445089049,7.982570602,-3.383664253
5.153933128,12.7512602,18.26239786,-5.181961187,4.246674068,2.242448632,6.092786849,7.669235261,-0.167357634,-3.112377076,15.5894642,10.48280242,6.013313445,3.593158986,10.63984168,6.885909204,1.518248745,8.694069164,-3.738067094
4.470690511,15.74825934,24.42291789,-18.46359973,4.786402008,1.709818044,4.394492356,6.864882976,-2.510870706,-6.223359481,12.10296728,10.58778017,3.946868601,3.119292446,10.5646392,5.253639891,2.472661293,10.63214106,-3.722319161
4.800341719,17.60321128,28.45192581,-21.35707803,4.974418388,0.626165799,2.697732332,5.469790296,-3.839247887,-9.588843202,10.49681108,13.63993526,3.051993554,3.136386831,12.04328415,5.093788801,4.15751736,13.45261896,-3.359926678
6.359361448,17.95824001,28.82950997,-15.2532333,4.833558355,-0.508251003,1.292319127,3.978389753,-3.299308166,-11.60196081,11.46552331,17.17854678,2.921538603,3.481704419,14.81340521,5.645593911,5.919951217,16.19705154,-2.540212296
8.650943994,17.0452945,25.28338685,-6.170576351,4.601738851,-1.31456134,0.317883303,2.646435812,-0.893958104,-11.77883229,14.26184507,18.55986751,2.859821784,3.871061606,17.23041513,6.061251606,7.029802699,17.96894618,-1.061936967
10.81632891,15.44246463,19.05779034,1.112256054,4.544021933,-1.763793369,-0.280741476,1.386651665,2.439313192,-10.86086371,16.9850652,16.7121338,2.299092072,4.061156398,17.52611009,6.152052404,7.163082793,18.478737,1.00583263
12.10167541,13.69498573,12.3824643,6.548029886,4.681941294,-2.085891745,-0.743437897,-0.13178221,5.192345455,-10.15900276,17.56955564,12.74148298,1.113186693,4.023904976,15.26702998,6.283024769,6.579794552,18.0662284,3.038762181
12.11945193,12.06783491,7.3773323,12.87216656,4.676733592,-2.46830179,-1.414590118,-2.250608005,5.926158131,-10.73836141,14.95135927,8.98700918,-0.352760528,3.99036428,11.73333337,6.675643532,5.866973845,17.25988122,4.049226465
10.84504522,10.54377004,5.02877188,20.46620499,4.017435157,-2.829487977,-2.597251922,-5.067673878,3.888391929,-12.97702681,9.713633156,7.263971649,-1.550600486,4.297592134,8.865692529,6.91793275,5.461504539,16.30007545,3.33740506
8.516379478,8.986764947,4.873488655,24.51549171,2.424864275,-2.874323069,-4.385271408,-8.270059829,-0.659267691,-16.5832587,3.784362047,7.616848478,-2.120355507,5.126631501,7.684736133,6.240303522,5.342172623,15.03831653,1.110784255
5.592559681,7.309866502,5.567393326,18.00000769,0.174455723,-2.379326182,-6.552310216,-11.14230385,-6.519148259,-20.79984485,-0.647913126,8.485858212,-2.140169557,6.327919543,7.567164493,4.335289104,5.136824402,13.2606082,-1.492973694
2.74014613,5.545556719,5.900448933,-1.479053007,-1.947917729,-1.446754938,-8.57610822,-12.78464109,-11.98485988,-24.56286721,-2.318825124,8.096393237,-2.054952469,7.486604927,7.020929042,1.912286936,4.539360101,11.09789981,-3.105532154
0.694612529,3.823537128,5.51254396,-27.18308801,-3.0890393,-0.49094404,-9.823339687,-12.48505228,-15.44905717,-26.67192286,-1.433503422,5.953568028,-2.322440228,8.199787825,5.266197192,0.348762555,3.66370748,9.112638025,-3.069654483
-0.051221966,2.313552521,4.832597395,-45.93476179,-2.886452634,0.045431603,-9.832801038,-10.08807475,-15.9819885,-26.17242322,0.711892982,3.271986773,-3.026239052,8.359432661,3.172537433,0.607053849,3.009612664,7.944733681,-1.892472453
0.45373788,1.171237882,4.409963287,-46.96898102,-1.733490098,0.010309524,-8.561241385,-6.162343259,-13.67631267,-22.93078679,2.682890789,2.020268288,-3.750847373,8.212664795,2.624402474,2.314965619,3.048726542,7.802608146,-0.8265038
1.620126586,0.491159746,4.303952758,-30.19057823,-0.530219404,-0.37131053,-6.449543976,-1.843353515,-9.600831366,-18.00963303,3.743574627,3.341895647,-3.840080766,8.14021443,4.776617996,3.875218518,3.781400658,8.24629018,-0.879222035
2.719124673,0.27479678,4.110415241,-6.822933188,-0.073187413,-0.712788774,-4.247187085,1.603049048,-5.324894654,-13.36477142,4.071332702,6.591001256,-2.875801992,8.326934436,8.721295481,3.643986908,4.666969958,8.488299183,-2.017329036
3.429446734,0.446275346,3.589351847,8.73491373,-0.514533718,-0.796679848,-2.665574135,3.289341047,-2.173487324,-10.80755307,4.361631974,9.737495822,-1.026413703,8.601995908,11.85497007,1.285289698,5.031872388,8.015545945,-3.189393217
4.081282499,0.937739043,3.249503672,9.716357916,-1.281930451,-0.741305102,-2.039490786,3.037120416,-0.569089065,-10.82527895,5.251533091,10.84056522,1.018676917,8.601497782,11.83717716,-1.815113072,4.650179541,7.059209891,-3.147807283
5.335010711,1.799502582,4.213090021,1.755481809,-1.516025074,-0.868662875,-2.187170438,1.3862548,0.143105072,-12.14830502,6.997514852,9.481024098,2.516318309,8.140326775,8.621461337,-3.471536611,4.016807741,6.534160558,-1.425317828
7.494536767,3.225999502,7.309797057,-2.459017127,-0.70376435,-1.393769746,-2.554208546,-0.683745155,1.210662306,-12.53527369,9.508484602,7.087531553,3.209692563,7.48636545,4.837526823,-2.266945826,4.055200805,7.45834836,1.287378167
10.0117838,5.412829719,12.1113239,5.55186666,0.948950538,-2.201825706,-2.561305934,-2.159299112,3.562080181,-10.35352402,12.50909531,5.928133597,3.522794592,7.276600752,4.04905808,1.453125112,5.448710092,10.24087272,3.632991501
11.65520253,8.290064694,16.81358397,22.1520153,2.656562385,-2.899767291,-1.952438142,-2.354751286,7.035317805,-5.855350183,15.58629543,7.512875906,4.222272102,8.081994968,8.124800631,5.904550865,8.093357417,14.31383716,4.542498699
11.3100934,11.31952906,19.25139211,33.81439145,3.5766197,-3.098928098,-0.939818973,-1.133355521,10.3010515,-1.180393039,18.12498846,11.54178318,5.76160343,9.915651809,15.73283677,9.166650904,11.08428548,18.33565425,3.918456468
8.842270896,13.56368858,18.36477406,28.00272047,3.325316662,-2.701561593,-0.068150157,1.040997483,11.6121173,0.986736596,19.36348768,16.0893095,7.795837835,12.05937915,23.13871796,10.36226834,13.23951789,20.81918476,2.566832046
5.341244502,14.07715001,14.96260213,3.98476837,2.137769151,-1.971440917,0.107486354,3.230779037,9.933045332,-0.822172719,18.72911499,18.82235024,9.273022999,13.38260122,26.70827288,9.820617251,13.76812381,20.80770754,1.501536114
2.494393294,12.43250097,11.1182812,-25.34875572,0.615834256,-1.346992634,-0.6709459,4.335495904,5.689891544,-5.921864577,16.29265953,18.37767596,9.101640123,12.9843225,25.21969008,8.287066084,12.62053282,18.25865761,1.204410512
1.50732689,9.051169542,8.633198133,-42.43113954,-0.695432121,-1.149190025,-2.248848011,3.534247848,0.597173282,-11.99155928,12.93364773,15.01925605,6.947860298,10.75212478,20.30952686,6.080302051,10.34778661,14.01139647,1.392898608
2.351004548,5.091151968,7.796188999,-37.80384108,-1.580184975,-1.39516308,-4.181303729,0.696844483,-3.353193813,-16.61546997,9.932064426,10.27288466,3.572292781,7.47260376,14.89764778,3.051218711,7.677589735,9.425239899,1.396518959
3.880451998,1.908234523,7.442577375,-16.70736947,-2.120896836,-1.826088897,-5.992891477,-3.471569444,-5.06340319,-18.71747818,8.15610055,5.916228736,0.408812223,4.414875009,10.99057474,-0.677365601,5.16759755,5.862211523,0.764106882
4.708985353,0.377997183,6.221176684,5.514712453,-2.47007457,-2.09574843,-7.406074901,-7.705522734,-4.872059637,-18.93302407,7.422544382,3.018761635,-1.369790627,2.641937265,8.602397555,-4.080606254,3.126584135,4.179396356,-0.406345763
4.155671342,0.45889747,3.933158067,15.19825024,-2.662920337,-1.972327424,-8.411361668,-10.78540459,-4.137730218,-18.80759493,6.576307044,1.551893342,-1.653554127,2.463253081,6.455343793,-5.601915186,1.702192263,4.376382141,-1.640139484
2.558497446,1.235814372,1.732027265,9.785870412,-2.627983261,-1.430874791,-9.163228594,-12.13626948,-4.220025989,-19.54331927,4.3293841,0.65664899,-1.468858062,3.337052372,3.60281605,-4.467572172,0.912184747,5.543374088,-2.557014375
0.773983989,1.40936494,0.971520679,-2.272857654,-2.35214547,-0.608963565,-9.78775288,-12.03154143,-5.60680321,-21.22212303,0.298766068,-0.699837077,-2.220921632,4.249989618,0.447264097,-1.832102144,0.547774864,6.209909309,-3.217558128
-0.663516239,-0.037773699,1.715897858,-10.20819943,-2.016672991,0.31953107,-10.22392677,-11.25169345,-7.752591386,-22.94557253,-4.517009286,-3.05527922,-4.600129486,4.330072152,-1.687680159,-0.507230603,0.120670929,5.033365061,-4.060631949
-1.995803226,-3.335300065,2.303523407,-10.29542005,-1.953140212,1.271176704,-10.18517978,-10.43021919,-9.609740973,-23.60930625,-8.19575946,-6.061040246,-7.917489474,3.340614032,-1.901092219,-3.093051606,-0.925447163,1.536869025,-5.497554363
-3.922860458,-7.809713784,0.506053592,-7.93127578,-2.429886891,2.31504191,-9.256193125,-9.559339654,-10.33192763,-22.6422288,-8.976185178,-8.519374172,-10.36737738,1.79670661,-0.626901752,-9.775874897,-2.76022583,-3.520121666,-7.494889297
-6.782512505,-12.18207627,-4.556873585,-11.1297424,-3.427463109,3.634376901,-7.075785712,-8.0214191,-9.598111284,-20.21142104,-6.221387456,-8.866738668,-10.08486616,0.665002574,0.790072987,-17.60807641,-4.810720897,-8.417989952,-9.4668742
-9.934657713,-15.10798422,-11.31770309,-21.69216325,-4.577081408,5.389325912,-3.524259498,-5.119652117,-7.424832214,-16.88807878,-0.648088995,-5.961671415,-6.312430511,0.82535571,1.47804481,-22.12169606,-5.905737679,-11.30169459,-10.55370859
-11.92299004,-15.69048307,-16.46591959,-32.24235497,-5.31809963,7.535933941,1.163700825,-0.701458479,-3.812099478,-13.15691359,6.219885194,0.154614237,0.089950032,2.583046358,2.056437389,-20.30561892,-4.982754546,-11.08091943,-10.09292504
-11.38205889,-13.73336677,-17.01432091,-32.05765612,-5.179992013,9.711733032,6.409279768,4.597779222,1.318046466,-9.172199803,12.88041558,7.963023285,7.108690876,5.480371429,4.219891333,-12.76701745,-1.919789691,-7.855839289,-7.98877413
-8.052692511,-9.657159137,-12.19162736,-16.78204058,-4.021305091,11.30198454,11.42467468,9.660651587,7.767000086,-4.889290535,18.37812253,14.93392273,12.67603741,8.494744192,9.090573777,-3.375481292,2.164442148,-2.638561147,-4.784440146
-3.136348991,-4.19610772,-3.787971099,6.518223628,-2.098321759,11.71052267,15.42610483,13.48963422,14.63447655,-0.398487339,22.30038951,18.64379064,15.66981888,10.51004033,15.72108588,3.422374496,5.48046775,3.359121021,-1.433997919
1.330963506,1.885774139,5.163377423,23.73845662,0.058397969,10.70687317,17.84696109,15.65110096,20.3321785,3.828745774,24.47764892,17.97366142,16.20959742,10.81144173,21.15754657,5.604697517,6.685431736,9.306010799,1.083440988
3.702316089,7.8711531,12.21264847,24.36688966,1.885776204,8.619231026,18.47642368,16.28281472,23.23174077,6.980019153,24.78798719,13.67239266,15.18251261,9.355185846,22.2570591,4.612562205,5.748403442,14.79143136,2.128314307
3.71985162,12.9736662,16.44140086,9.75686562,3.031466773,6.20064373,17.48359975,15.76752194,22.597897,8.238764074,23.24981413,7.906138916,13.46234721,6.702937401,17.97793373,3.697544938,3.898200391,19.41002634,1.610212555
2.612610865,16.25526619,18.07169185,-7.807332277,3.490360949,4.209916663,15.33170584,14.42281886,19.14307261,7.254322201,20.23829478,3.057467922,11.42217408,3.701906405,10.36276306,4.993657549,2.674573714,22.39734101,-0.0188115
2.230119522,16.82617026,17.47282388,-14.61185669,3.569785167,2.973182611,12.6161503,12.46348972,14.73825668,4.481445136,16.51827652,0.527866584,9.01585189,1.115865307,3.365598024,7.721013289,2.807938904,22.79627084,-1.976061632
3.799453703,14.34478195,14.68956736,-5.977359083,3.689197649,2.239265814,9.868754866,10.16696143,11.39360694,1.132891457,12.96299811,0.260173442,6.206924057,-0.605732647,0.313710085,8.958837874,3.792401147,20.15164366,-3.482110984
7.12759244,9.498189903,9.903307225,10.60433138,4.10630535,1.444882494,7.374261848,7.941558806,10.14035748,-1.353666649,10.1345527,1.15643897,3.264532172,-1.364643983,1.837298515,6.291078388,4.456091699,15.1829702,-4.075294834
10.74582594,3.997666466,4.163274804,21.89150925,4.725633185,0.19749876,5.060030553,6.099031395,10.51514576,-2.137672947,8.044442959,1.945620734,0.62300127,-1.333934125,5.726861336,0.086906568,4.020442294,9.762957803,-3.759812867
12.8543401,-0.13198611,-0.644513019,19.41177039,5.130060286,-1.391913621,2.532012981,4.484255807,10.93573259,-1.604025485,6.268009473,1.835694481,-1.555108061,-0.869549499,8.707431612,-6.50481444,2.749401009,5.999880807,-2.918396202
12.41699565,-1.662617708,-2.898220458,5.611671212,4.854154553,-2.782373584,-0.699846049,2.370964422,9.686802755,-1.285654052,4.301883673,0.602516866,-3.657421291,-0.443554,8.725472153,-9.869381937,1.652731543,4.954461501,-2.053715996
9.707523736,-0.948151346,-2.570289778,-8.898562377,3.745505952,-3.416737098,-4.859554704,-1.099933471,5.907754134,-2.941800143,1.888799529,-1.695823431,-6.386638875,-0.538207096,6.090706172,-8.669816871,1.52321061,5.921216063,-1.524534695
6.018012725,0.255598871,-1.499505628,-14.18880342,2.160624121,-3.136673774,-9.582935159,-6.130901436,0.062982586,-7.269440216,-0.884571989,-4.921799983,-10.10567508,-1.446200929,2.817218562,-4.802958894,2.164583238,6.891326597,-1.432671956
2.80213951,-0.047042765,-2.098395421,-8.50225782,0.817881786,-2.264252445,-13.86645818,-11.73005155,-6.264574496,-13.13763953,-3.692514823,-8.737311546,-14.27762246,-3.039299156,0.898839263,-1.829828363,2.508389991,5.965655773,-1.696584471
0.85550048,-2.681876163,-5.383028861,1.353874183,0.361655003,-1.298642573,-16.41728754,-15.97646877,-11.06940536,-18.03125811,-6.115591782,-12.37305736,-17.529404,-4.685138769,0.934707867,-2.193085834,1.55000505,2.73653273,-2.210105663
0.036878718,-6.663927621,-9.966955476,6.287325385,0.922050667,-0.500224819,-16.29416869,-17.08149666,-12.76954923,-19.58527393,-7.716116282,-14.72125517,-18.41994027,-5.468905588,2.046608545,-5.468186752,-0.689885267,-1.387664142,-2.94110805
-0.384347723,-9.860897128,-13.00790502,2.14545354,1.995917861,0.277739965,-13.49186861,-14.57983184,-10.88485307,-17.22362165,-8.082927994,-14.91322513,-16.41873301,-4.680270891,2.902882742,-8.980666001,-3.026073599,-4.195411194,-3.904890931
-1.092793929,-10.54510232,-12.49116295,-7.964599017,2.76569288,1.373811575,-9.076074582,-9.774321775,-6.308778569,-12.69155623,-6.948797689,-13.01254597,-12.368389,-2.289686041,2.846030438,-10.16438488,-3.962073116,-4.303919638,-5.072339194
-2.280424388,-8.706775766,-9.02581422,-17.41634023,2.650317336,2.924334303,-4.704556029,-5.027579899,-1.026553753,-8.974240514,-4.385614131,-10.18607479,-8.034547555,0.931386135,2.217750491,-8.665441649,-2.862682469,-2.202574686,-6.32675807
-3.654988113,-6.116406127,-5.606236193,-21.86138461,1.694070631,4.654033553,-1.758899674,-2.326064033,2.706636797,-8.278713287,-0.930460354,-8.036031481,-5.012691242,3.79287575,1.784653935,-6.50275477,-0.480855711,0.083752375,-7.519599298
-4.798824143,-5.034724648,-5.401405698,-21.86103569,0.506635498,6.049417312,-0.598511921,-2.09981759,3.447976218,-10.51915392,2.530330898,-7.477747198,-3.753555894,5.365502942,1.932827766,-6.254185936,1.609101673,0.478499824,-8.562284944
-5.529105151,-6.505702709,-9.268925976,-20.54677789,-0.195737375,6.768711378,-0.411575936,-3.112136747,1.379510326,-13.43773235,5.1311609,-8.02418059,-3.395503369,5.510677067,2.389617693,-8.83584344,2.220518895,-1.610601471,-9.446415956
-5.962576315,-9.521109253,-14.97296629,-19.19659788,-0.091081295,6.924232636,0.229489176,-3.451038737,-1.679987766,-14.28816026,6.446424281,-8.115492024,-2.498611003,4.891520856,2.653939234,-12.6919281,1.425180572,-4.841346693,-10.15880303
-6.26910107,-11.71166399,-18.75126249,-15.33289459,0.591327669,6.978891972,2.458302166,-1.860143276,-3.210729196,-11.82122316,6.683565319,-6.321857169,-0.116586189,4.457935421,2.645310434,-14.99023352,0.390163408,-6.902106916,-10.58041414
-6.369756651,-11.06783071,-18.01442035,-5.325451759,1.363552431,7.338244101,6.428226308,1.548351322,-1.419456594,-7.085889435,6.525739734,-2.504638734,3.574873343,4.779831397,2.913294222,-13.79861533,0.34144835,-6.176137944,-10.5008008
-5.878347572,-7.411593731,-13.09843858,10.9156218,1.959399554,7.992452183,11.26120758,5.621865228,3.700177838,-2.492336763,6.745708075,2.001018832,7.496585269,5.706528901,4.189856223,-9.519643625,1.525130391,-2.892684693,-9.782207979
-4.372508326,-2.537628684,-6.809419274,27.69796755,2.587281624,8.523006591,15.60649661,9.1462917,10.37668644,0.063447569,7.842818511,5.350995235,10.47704343,6.571729303,6.68330228,-4.561133792,3.013784169,1.040039762,-8.549218307
-1.791735035,1.04098204,-2.276908266,36.26376524,3.731548789,8.467679093,18.39400324,11.64370264,16.15474428,0.522639001,9.877273763,6.531747538,11.98935731,6.74492479,9.74727358,-1.638395949,3.484899613,3.346757027,-7.214940716
1.366477142,1.770883281,-0.886042231,30.64854395,5.66178454,7.718137729,19.29512087,13.40974852,19.33922125,0.453368952,12.49655385,5.986595961,12.28525414,6.082484345,12.22455828,-2.058530767,2.297238155,2.865492303,-6.26775326
4.239641053,-0.06829265,-1.808127746,12.09483671,8.06826697,6.594541674,18.67161944,14.90137429,19.81258533,1.591532937,15.05315049,5.040998084,11.93512343,4.945373935,13.18325589,-5.150869216,-0.023455784,0.169756672,-5.953714003
6.072137379,-2.83809142,-3.21227115,-11.41056612,10.15578291,5.531767669,17.16995443,16.11450404,18.72799199,4.386198013,16.76811597,4.659100949,11.25446686,3.820573813,12.44903909,-8.994765457,-2.249777139,-3.006288892,-6.110792795
6.638508812,-4.85846394,-3.897406599,-29.94541524,11.15986522,4.666074038,15.31593111,16.53156746,17.42597457,7.705404173,16.98311127,4.628135124,10.12014734,2.8992943,10.54562505,-11.6767711,-3.429279794,-5.011983025,-6.313112164
6.323959578,-5.492440806,-3.940401447,-36.99600722,10.89752697,3.709729345,13.36596875,15.66086688,16.47211533,9.832551687,15.50036044,3.876819692,8.271668816,1.971267307,8.173745021,-12.17057433,-3.540694586,-5.266320553,-6.227554264
5.820687937,-5.236946905,-4.015305021,-31.62711558,9.918728067,2.248566402,11.40533279,13.6425865,15.53114442,9.829770478,12.83172851,1.617286349,5.737944719,0.700667649,5.721426022,-10.49730144,-3.322635568,-4.367385896,-5.888046838
5.670352774,-4.93487563,-4.272535227,-16.85649764,9.127667509,0.212070922,9.494738421,11.33627163,14.04297454,8.13483753,10.0685699,-1.752555367,2.935767174,-0.984170353,3.205391421,-7.446029326,-3.498883256,-3.415267969,-5.642048047
5.968211868,-4.90964706,-3.973542801,3.270179073,9.153621835,-1.908877704,7.698171825,9.769790579,11.98747846,6.003423916,8.258212806,-4.857270981,0.325635309,-2.743706612,0.610446952,-4.267170854,-4.121270321,-3.176711309,-5.800329769
6.395527718,-4.777854633,-2.251766567,25.00049636,9.941996102,-3.321264924,6.007715798,9.401431837,9.997581777,4.406731645,7.59371974,-6.53813896,-2.036405424,-4.056042119,-1.7732466,-2.426010049,-4.601003763,-3.712233899,-6.295732412
6.499791319,-4.019898181,0.764062439,44.06548769,10.8593884,-3.481927814,4.316496081,9.823201517,8.723613262,3.379099515,7.048685304,-6.975547162,-4.57141535,-4.621071959,-3.390678731,-3.206916865,-4.360975193,-4.618647564,-6.678362062
5.993394763,-2.70251775,3.611666287,54.8550879,11.2087345,-2.495357175,2.54237511,10.16405786,8.092420083,2.305866685,4.939409473,-7.659001636,-7.715210715,-4.585702811,-3.837355233,-7.080425324,-3.488006293,-5.53815355,-6.498186089
4.884634141,-1.638382328,4.384624965,51.93383089,10.74847242,-1.027210376,0.825089161,9.858842141,7.262982588,0.765093122,0.241481772,-10.08652513,-11.27290259,-4.391494081,-3.267182611,-13.16445467,-2.77402959,-6.445439011,-5.771669318
3.419058965,-1.797922587,2.163301661,33.77967823,9.831623244,0.19586757,-0.405073423,9.140545701,5.471501785,-0.910698262,-6.222872666,-14.22363471,-14.1852429,-4.371970136,-2.379018433,-19.32571438,-3.084744849,-7.504976663,-5.109252281
1.939043078,-3.469126401,-2.217510217,5.798967894,9.091140647,0.888324036,-0.617923827,8.847601626,3.086570931,-1.846883962,-11.74891156,-18.08000939,-15.02949332,-4.441645382,-1.92170454,-23.12892758,-4.593050275,-8.705946345,-5.327394047
0.769879594,-5.896818568,-6.715939508,-20.67976997,8.940576309,1.30838401,0.457502575,9.708575705,1.845183931,-1.355810226,-13.19035789,-18.92835694,-12.98453247,-4.142429573,-2.092257438,-23.15458529,-6.542571025,-9.669405609,-6.801309265
0.151093355,-7.733796888,-9.481399797,-33.92805627,9.272441875,1.908693117,2.571903839,11.69226309,3.800930115,0.519100634,-9.085444498,-15.34349243,-8.562256861,-3.016406416,-2.33707008,-19.7850014,-7.761634459,-9.84463323,-9.071447489
0.169467444,-7.960124562,-9.957157513,-28.60209701,9.557055988,2.863678697,5.018343693,13.94654931,9.599761589,3.101579113,-0.99187491,-8.496265125,-3.516564691,-1.009807372,-1.7699774,-14.85528905,-7.519972534,-8.947783407,-11.05959906
0.685038181,-6.551357528,-8.868554591,-9.054529237,9.23677767,3.888332476,7.002839792,15.36704515,17.41722592,5.637041607,7.06967782,-1.642148645,0.07419538,1.404058405,0.075752089,-10.40802297,-6.043012765,-7.266790784,-11.77932929
1.323617618,-4.400532748,-7.279301097,13.35532385,8.115865173,4.488737627,8.063629262,15.34624855,23.57895684,7.723487661,10.88763155,1.882909672,0.948071643,3.465655054,2.739108602,-7.485652303,-4.292278714,-5.550857488,-11.0154266
1.624116493,-2.607044133,-5.656150462,27.2183412,6.489345455,4.400178867,8.242715964,14.14639246,24.68637067,9.261039017,8.600302778,0.707567079,-0.735349764,4.541830224,4.990156493,-5.835113329,-3.219928649,-4.533930898,-9.4443765
1.32095413,-1.719542188,-3.747186387,27.57439829,4.965350099,3.813832694,7.916189866,12.6674089,19.87296785,10.13547663,1.776604883,-3.938273742,-3.678391824,4.418240177,5.584667242,-4.620015279,-3.105336134,-4.435497286,-8.094710079
0.589351135,-1.490174846,-1.237431438,17.77215838,4.134994502,3.196613154,7.45857586,11.84505289,11.5777952,10.15421154,-5.711641768,-9.332323779,-6.33610249,3.310217067,4.085477046,-3.408359804,-3.470181247,-4.808268783,-7.567745397
0.037062037,-1.23812309,1.586969039,6.001081338,4.298854904,2.879449585,7.021871359,12.13649948,4.190224456,9.4424597,-10.22556949,-13.15316572,-7.763693624,1.654961928,1.152887154,-2.546440574,-3.573625852,-4.850509628,-7.631637167
0.372197144,-0.448418431,3.884552494,-0.554950233,5.372260788,2.791841766,6.570388087,13.3946757,1.410699584,8.88509944,-10.53809074,-14.74073099,-7.913389494,-0.125531493,-1.915444399,-2.662545037,-3.040560364,-3.970857641,-7.501983471
1.927352181,0.873822862,4.983014044,0.150798753,6.965112593,2.576940028,6.0651668,15.08595866,4.081866961,9.941130467,-8.223326471,-14.97787396,-7.353770445,-1.749841792,-4.067777043,-3.876158243,-2.126797465,-2.227019018,-6.569347665
4.372932836,2.285626535,5.041538756,4.895314814,8.55986513,1.967605131,5.566710875,16.58377038,9.900220813,13.63665296,-6.172914079,-15.19711579,-6.78129004,-3.087619254,-5.165078237,-5.550472802,-1.46911801,-0.358344667,-4.976241227
6.857198949,3.239886079,4.932907683,8.348607481,9.708316871,1.064096473,5.134876387,17.33068386,15.0911434,19.40232928,-6.473073209,-16.16626067,-6.711344352,-4.133768966,-5.945243143,-6.875007975,-1.581948383,0.597569875,-3.572999027
8.511425036,3.353404991,5.374928284,6.948416774,10.18831515,0.247112354,4.640830163,16.88681849,16.81124914,24.84017996,-9.185552318,-17.89047161,-7.43851593,-4.989957319,-7.310650872,-7.716141632,-2.508229094,-0.132170411,-3.286532426
8.978048863,2.468922423,6.110745923,1.10270097,10.0702599,-0.198046216,3.735262987,15.01944857,14.67111394,26.95461265,-12.72635283,-20.09005861,-9.069982985,-5.817302824,-9.467927124,-8.837535203,-3.837954161,-2.625227414,-4.405082004
8.584746498,0.626416141,5.983622816,-5.141276946,9.655067526,-0.391090241,2.098572653,11.89935972,10.53678259,24.19267566,-15.2783625,-22.62480485,-11.43483032,-6.714530944,-11.5772881,-11.12864836,-4.991137904,-6.171686239,-6.338935184
8.039884803,-1.883112177,3.981972248,-6.380002892,9.293886601,-0.787737944,-0.178264379,8.257204124,7.016580131,17.79842031,-16.01049088,-25.3481027,-13.9238731,-7.565148743,-12.2191191,-14.43938043,-5.503029014,-9.537433466,-8.028124828
7.87783774,-4.395624137,0.411767167,1.117208507,9.178505476,-1.756308355,-2.4178352,5.257144427,5.832254631,11.3064133,-15.24961035,-27.61366958,-15.52944509,-7.990169745,-10.39343882,-17.12261382,-5.142281823,-11.44678976,-8.661239452
8.065362233,-5.908788661,-2.876917659,16.88552423,9.237422434,-3.159334434,-3.621230687,4.005241969,7.114301132,8.351387726,-13.73703521,-28.15354258,-15.27180698,-7.516009776,-6.351581449,-16.91131079,-3.893902218,-11.08458272,-8.154205088
8.053804961,-5.467460463,-3.570271775,35.42777403,9.22322677,-4.329820575,-3.073661745,4.922337577,9.818104287,10.31107765,-11.82374249,-25.77031787,-12.84941965,-5.903936415,-1.629511486,-12.63666172,-1.935879676,-8.433861238,-7.068218611
7.228241606,-2.788914657,-0.555585007,47.95406704,8.94340518,-4.514949417,-0.883783654,7.406694101,12.66254053,15.51006582,-9.352129888,-20.46121278,-9.047285569,-3.416917794,1.813618042,-5.469762527,0.339838387,-4.32600996,-6.107030819
5.420043834,1.302447433,5.094468968,46.59123338,8.465848034,-3.458618861,1.962203159,10.08996197,14.8185505,20.56168784,-6.224594789,-13.99798495,-5.496328815,-0.789195912,2.807665917,1.410935698,2.345125011,-0.167080385,-5.637898107
3.119298907,5.067142272,10.61523396,29.28203958,8.129646535,-1.652150576,4.128876845,11.60232006,16.01418661,22.80318219,-2.990536801,-9.246995728,-3.815006371,1.141131309,1.701586418,4.66802341,3.455389407,2.585181057,-5.596439632
1.249434381,6.712391462,13.21094691,2.340403477,8.329370711,-0.029799294,4.716808051,11.38607099,16.28443269,21.98281373,-0.786641844,-8.494769974,-4.655439933,1.913900338,0.074559181,2.922226135,3.28359831,3.004507268,-5.769185951
0.663633249,5.443399861,11.71515277,-21.75163264,9.216387507,0.674982265,3.779121773,10.02063366,15.78414162,20.01314165,-0.599240448,-11.93430658,-7.310783009,1.707503024,-0.405020787,-2.370303728,1.892593179,1.086173929,-6.130349896
1.679743822,1.995026833,7.134304252,-30.92056022,10.53237637,0.424501887,2.223681095,8.820835896,14.82140777,19.15127722,-2.478809021,-17.4716646,-10.17588746,1.18769211,0.816569614,-7.901144286,-0.230528042,-2.260803262,-6.904331442
3.907976828,-1.773141808,1.824733178,-20.74736136,11.69681689,-0.148900262,1.181663865,8.946684809,13.90352584,20.13971178,-5.419601247,-22.06188,-11.7502787,1.053440836,2.779506906,-10.63156125,-2.441759938,-5.649320227,-8.309302019
6.428674925,-4.000840783,-1.988300831,2.50396597,12.08700089,-0.254648851,1.281001033,10.59171109,13.52333517,21.73251926,-8.051081963,-23.62427029,-11.49332718,1.606440625,3.729152667,-9.568651427,-4.258511074,-7.879378456,-10.2398025
8.196317245,-3.938877101,-3.313323925,25.56542274,11.32410929,0.460714681,2.300122368,12.77818123,13.72145904,21.82098685,-9.582726903,-22.16234062,-9.976600779,2.634452523,2.452818272,-6.066209933,-5.504613426,-8.486343036,-12.19971639
8.472163589,-2.313561605,-2.535638299,36.40705501,9.404619066,1.679963668,3.389344093,13.90898702,13.81695942,19.11720246,-10.2254229,-19.36502362,-8.312277252,3.645465142,-0.741399496,-2.642985698,-6.220463619,-7.868736015,-13.56771195
7.11238894,-0.726391199,-0.786408218,31.45545727,6.652336428,2.690113558,3.66099343,12.7518007,12.70325418,14.05762874,-10.76862215,-17.14859954,-7.34748012,4.231757616,-4.14682171,-1.301022127,-6.482929574,-6.927355347,-13.9816345
4.60651172,-0.533073859,0.826618235,16.80313933,3.583421255,2.923909323,2.736688668,9.25481936,9.672322432,8.37665242,-11.71763928,-16.346896,-7.219029576,4.284465357,-5.825931357,-2.48698819,-6.33288924,-6.44435011,-13.52951804
1.844227962,-1.97601917,1.622203809,2.84708932,0.780289705,2.350283319,0.919761872,4.679967131,5.20189408,3.897151992,-12.75902232,-16.49885065,-7.516696688,3.945098776,-4.983934987,-5.188020051,-5.86076184,-6.598194618,-12.6098005
-0.306788585,-4.12498223,1.338220366,-3.321229309,-1.213839976,1.447260215,-1.061830768,0.93832289,1.008073952,1.558879096,-13.01878334,-16.69791441,-7.813453809,3.407364374,-2.533061243,-7.811090628,-5.304813383,-6.924815988,-11.60532255
-1.41885407,-5.597713339,-0.003113491,-1.987567183,-2.027211422,0.822234959,-2.528954676,-0.505003722,-0.871106476,1.274947829,-11.88335901,-16.61679929,-8.07963324,2.773225801,-0.418361132,-9.106521567,-4.980707854,-6.737228275,-10.65418677
-1.679546602,-5.515821748,-2.12092445,1.31503168,-1.621780573,0.789761156,-3.231230477,0.495346706,0.558523251,2.403582026,-9.668440915,-16.79285789,-8.66272605,2.064650445,-0.197571439,-8.623074392,-5.037420773,-5.699917647,-9.685894695
-1.687015751,-4.047995854,-4.43028048,1.688837659,-0.384361548,1.206689005,-3.421915388,2.668667501,4.402030019,4.216702732,-7.551455736,-18.00432047,-9.907760308,1.31885144,-1.93061662,-6.672222409,-5.25698649,-4.142048466,-8.642640991
-1.964891821,-2.231208601,-6.135271877,-0.797999795,0.989469917,1.641959284,-3.617207126,4.11543709,8.257236056,6.019116577,-6.801760679,-20.38703758,-11.7763863,0.624216798,-4.203642919,-4.069763714,-5.145832997,-2.87576345,-7.651736994
-2.521758929,-1.263732703,-6.562369873,-1.922576651,1.83896465,1.715705322,-4.209478029,3.525881794,9.684597075,7.111549823,-7.917260338,-23.12576541,-13.78499625,0.045332628,-5.255722568,-1.85846578,-4.33118454,-2.643152822,-6.983808635
-2.799463933,-1.777208474,-5.572827036,1.848853731,1.930416149,1.353816817,-5.177957506,1.059063404,7.804269501,6.973294328,-10.33528578,-24.9925761,-15.29425613,-0.468458894,-4.344399842,-1.011493689,-2.965634758,-3.591489901,-6.842636252
-2.097824052,-3.538273636,-3.74678513,9.156826194,1.615314161,0.802246978,-6.082672213,-1.725696331,3.89343521,5.681346062,-12.90564272,-25.24148026,-15.90545594,-1.056915058,-2.314461616,-2.066828326,-1.754216087,-5.161438754,-7.184360279
-0.187959173,-5.69395805,-2.150677023,14.20266795,1.592884252,0.426608696,-6.364665323,-2.899775265,0.51430854,4.116856581,-14.71261087,-24.08531468,-15.66933918,-1.789205222,-0.950255275,-4.799891349,-1.481757717,-6.467998185,-7.723752387
2.370749204,-7.319389,-1.782810212,11.63183745,2.403727416,0.451707081,-5.780831941,-1.509150034,-0.260961388,3.52231755,-15.59850909,-22.39357641,-14.99376521,-2.515287754,-1.616910225,-8.185220025,-2.349002568,-6.883475184,-8.10666405
4.515929397,-7.882946408,-3.007855286,1.554273351,4.012227008,0.806023868,-4.68333004,1.689676983,1.706701409,4.561110178,-16.03118539,-20.94649314,-14.36761016,-2.903617377,-4.22003707,-10.7991271,-3.655374646,-6.381874564,-8.087896512
