Channel 1 - P4,Channel 2 - O2,Channel 3 - P8,Channel 4 - T8,Channel 5 - C4,Channel 6 - Cz,Channel 7 - Fz,Channel 8 - F4,Channel 9 - Fp2,Channel 10 - F8,Channel 11 - Fp1,Channel 12 - F7,Channel 13 - F3,Channel 14 - C3,Channel 15 - T7,Channel 16 - P7,Channel 17 - P3,Channel 18 - O1,Channel 19 - Pz
-32.1273112,-33.42652392,-17.25680094,-16.31239202,-22.47564547,-15.38430727,19.8435665,-5.095575431,-5.490761762,-15.51599889,-6.452664491,-25.5760631,-17.08901594,-24.58834967,-19.19635067,-27.44624904,-29.37850476,-8.180082056,-13.50776913
-30.41699323,-28.27883308,-9.313935068,-9.990904816,-17.91826954,-6.275395741,37.14742575,7.466276238,6.465598608,-2.34157409,7.201773211,-13.44771447,-4.085961798,-12.65803488,-10.36500628,-22.63156828,-23.94482692,-0.98196101,-6.560484347
-18.22356136,-13.42683996,-0.292766263,-4.425737492,-8.959973034,3.479317968,37.77820456,15.38613886,16.82104894,9.475700651,19.95789222,3.047896374,10.57203324,2.773006842,0.76427111,-10.56733267,-9.737260533,4.592885104,2.404458662
-3.564035289,2.051238336,4.874792018,-3.087641923,-1.439772651,8.603015258,23.22287333,15.58853253,20.38636688,14.67246763,25.67370421,15.51762832,19.84524152,13.45807971,7.904253257,1.158338104,4.306841453,5.307699763,7.841428662
4.907822402,9.629627965,4.274368659,-6.035015752,0.621948195,7.368315531,4.476176464,10.37203345,17.10406948,12.80633832,23.23685978,18.72298195,20.55328865,14.71665584,8.024921787,6.004201333,10.22769001,1.464301799,7.181530667
3.830529143,7.031259227,0.103657917,-10.03037007,-2.406152887,2.374350868,-6.169078287,5.332693713,11.64887632,8.212101271,16.64156637,13.69619983,15.06562009,8.214522783,3.182226802,2.7868596,6.318336782,-3.487921219,2.280699246
-3.152606461,-0.907103896,-3.253105813,-11.10740716,-6.601379693,-1.844628222,-3.78546153,4.977870597,9.47862846,6.463413291,11.41448377,6.285383994,8.98142723,0.129185805,-1.42304864,-4.12665857,-2.410996678,-5.629598822,-2.447692677
-8.889494625,-6.536687242,-2.589453994,-7.568808533,-7.846245403,-2.34963689,6.525937933,9.451284302,12.55232181,10.10678675,10.41475434,2.499512516,6.779771153,-3.659645325,-1.516619683,-8.612229055,-8.591041927,-3.442493049,-3.558477866
-8.416669242,-5.286321158,1.910118594,-1.137324411,-4.961796447,0.290597359,14.56831555,14.80776822,18.08882679,16.93221215,12.27592094,4.327299136,8.837084964,-1.596726499,3.222772398,-7.433713887,-8.051425501,1.293083966,-0.965420829
-2.386427404,1.392396677,7.165423176,4.497432362,-0.246088843,2.999669068,13.29000095,16.42167264,21.17834771,21.98018835,13.38454284,9.054805225,11.90975146,3.186835092,9.368766328,-2.191676245,-2.327754456,5.12541897,2.491800498
4.158005668,7.951511598,9.789534791,6.458198081,2.74337947,3.026601711,3.79929335,12.69966404,18.93579134,21.54389881,11.37916855,12.17555869,12.32548089,6.033935653,12.74474066,2.610073189,3.428905671,5.660051326,3.661688578
6.246485013,9.560748583,8.608381225,4.580297774,2.152019778,0.188938634,-6.400411098,6.188050945,12.76497127,15.96034098,7.117380328,11.22401716,9.0805348,4.627676256,11.65821102,3.459624165,4.993930634,3.211647296,1.603270979
2.878745001,5.774453778,5.20002075,1.080759134,-0.884765553,-3.207534403,-9.948943666,1.377314302,7.022023046,9.103169652,3.626143156,7.439639116,4.389254454,0.496332564,7.854307405,0.435596609,2.228767855,0.203641664,-1.947140033
-2.64630825,0.314493791,2.269719835,-1.506523733,-3.492200373,-4.482220638,-5.363780557,1.143118005,5.39248753,5.195832672,3.23582839,4.234400819,1.528582478,-2.73090982,4.688583238,-3.383812438,-1.467270053,-0.994901436,-4.289732591
-5.848768516,-2.415814815,1.395419059,-2.322143143,-3.583740116,-2.81407105,2.47833656,4.705303345,8.079433532,5.62786512,5.559976953,4.117771124,2.047534746,-2.53415908,4.267054237,-4.839892341,-2.508706011,0.075540795,-4.023751195
-4.767356839,-0.922651404,2.013628964,-2.528528067,-1.481785991,0.246030975,6.972785017,8.584753101,12.03257503,8.266936655,8.050643277,6.795097404,4.738449355,0.582523434,5.95440118,-3.285534793,-0.188950348,1.877270357,-1.966536965
-1.191273892,2.599480274,2.311742211,-3.920781731,0.614059451,2.253691501,5.296579927,9.560241996,13.79180168,9.595344002,8.475824173,9.868718226,7.06046648,3.87976218,7.304944143,-0.750369079,3.070841565,2.44977665,-0.144956994
1.311364978,4.616874941,1.058625873,-7.135474794,0.671539556,1.942899609,0.239482869,7.127132869,12.38234734,7.720556592,6.980805818,11.21643532,7.548040664,4.91383845,6.383776904,0.17746516,4.206856817,1.180050637,0.072169292
0.601439691,3.435829325,-1.27927803,-11.00674649,-1.458273244,0.122317427,-2.78159257,3.568022351,9.837745906,3.76161286,5.856940132,10.77996531,6.995339752,3.507446777,3.395447953,-1.304041347,2.336472616,-0.744410514,-0.962628593
-2.383050957,0.454115173,-3.032552103,-13.53603787,-4.067329243,-1.241774385,-0.60264866,1.813366886,9.09260985,0.627488808,7.264592703,10.23426649,7.432290041,1.564497321,0.314418639,-3.690185539,-0.563274063,-1.491109782,-1.720044708
-4.761282827,-1.379313479,-2.877725278,-13.55140091,-5.195839279,-0.821592845,5.14184997,3.017252849,11.23742755,0.409633533,11.01399424,11.03433925,9.931675963,1.116021993,-0.977676203,-4.754694701,-1.563626009,-0.247841597,-0.997233082
-4.391406196,-0.304139032,-1.012913432,-11.6122511,-4.332890357,0.99019553,9.729432085,5.817522774,14.55247806,2.658125154,14.45715029,12.78785305,13.30729839,2.460941652,-0.30542373,-3.648277501,0.557874081,2.076857383,1.02618451
-1.664915463,2.793698448,1.055645825,-9.440634605,-2.756895861,2.56728617,9.525131644,7.703082004,16.07782945,4.91728354,14.65996524,13.52143348,14.92635391,4.022648889,0.83022954,-1.57841192,4.284901231,3.689097827,3.059645855
1.050216695,5.373147897,1.868397207,-8.442192695,-2.315742053,2.557129798,4.925493899,7.171452103,14.25691665,4.927553191,10.99007032,11.61002414,12.95674871,3.922062111,0.788716013,-0.535464552,6.776564611,3.49976066,3.937375698
1.638328283,5.619662898,1.27698059,-8.609606464,-3.782338849,1.036848332,-0.276079862,4.857348748,10.33300639,2.552686645,5.859462904,7.577556716,8.091892866,1.764503226,-0.622518603,-1.331873126,6.370808926,2.061982722,3.634454764
0.067077015,4.013184803,0.513093697,-8.702011974,-6.203877637,-0.64168969,-2.248273784,2.835106627,7.340176304,-0.162494115,2.932714847,4.050800763,3.23670656,-0.960013737,-1.942986449,-2.802386112,3.940534633,1.054960883,3.168510818
-1.746956412,2.73673379,1.03125931,-7.470793927,-7.730041553,-1.076666468,-0.151777629,2.854258744,7.617117723,-0.75691837,4.269485229,3.775026721,1.376936777,-2.164367361,-1.393276862,-2.901253423,1.978876607,1.788341705,3.556138564
-1.780829158,3.569062745,3.15473738,-4.840211261,-7.13402105,0.025690086,3.634459152,5.029995526,10.96269643,1.600503878,8.754165556,7.328326408,3.369026841,-0.957001419,1.458738548,-0.678476461,2.323297389,4.033199296,4.836394364
0.27555147,6.217292427,5.693892047,-2.053477093,-4.727848011,1.738808663,5.943635968,7.946379173,14.89485893,5.451807416,13.05109878,12.48171785,7.405949414,1.619489039,5.169685428,2.686174786,4.567818036,6.178638104,6.058054409
2.820759269,8.565525978,6.847888477,-0.712791309,-1.989365464,2.835926128,5.519899475,9.865948297,16.64450328,8.205193977,14.21069443,15.78321947,10.48428786,3.477797051,7.481067607,4.761878445,6.513863143,6.564201167,6.208524431
3.839629956,8.55567014,5.614712341,-1.557205024,-0.34510204,2.833129813,3.634185711,9.910852912,15.13687555,8.048432079,11.75284566,15.09036312,10.58620252,3.165823307,7.04890381,3.909282627,6.172230992,4.847705129,5.20308855
2.681096027,5.985444615,2.544596507,-3.977169954,-0.193180504,2.22549407,2.349895899,8.318593907,11.40762239,5.072104789,7.620454177,11.02076525,7.842979925,0.900033685,4.392461086,0.693531257,3.504770565,2.266786019,4.021356463
0.539666988,2.64785461,-0.733815154,-6.589461464,-0.909425052,1.796275347,2.300304251,5.823548041,7.36620007,0.859535273,4.255671594,6.238576453,3.945790296,-1.820717204,1.332388199,-2.575214608,0.407684478,0.607226099,3.868838896
-0.704134386,0.752304545,-2.758943341,-8.315086151,-1.651058926,1.738031466,2.120569435,2.948999474,4.193254472,-2.892050002,2.571643742,3.289102934,0.561070971,-3.53580334,-0.518549813,-3.775467288,-0.966047378,0.767510551,5.118460789
-0.168542204,1.06880052,-3.215775378,-9.058503391,-2.119885721,1.453446797,-0.011368253,-0.107021965,1.774470608,-5.476214411,1.519507655,2.802848289,-1.798930644,-3.869839817,-0.912265238,-2.706907121,-0.018896671,2.105482957,6.966569865
1.329399767,2.41012583,-2.919340272,-9.511323608,-2.612038673,0.221495249,-4.2818045,-3.040396605,-0.541657331,-7.202786184,-0.546414307,3.434803049,-3.609181036,-3.483741196,-0.875299216,-1.143685505,1.90437151,3.058445958,8.087596318
2.112554861,2.823747754,-2.942712954,-10.37040263,-3.43316294,-1.921540895,-8.641259633,-5.108056977,-2.816214597,-8.585582724,-4.057563524,3.368237365,-5.283078739,-3.161963309,-1.599420637,-1.204132573,2.801363816,2.465051877,7.696797858
1.188934356,1.360659972,-3.698303173,-11.69934782,-4.359019795,-3.953234148,-10.32588591,-5.421760928,-4.218544395,-9.617579822,-7.614684644,1.953290319,-6.400558964,-3.001741984,-3.370618819,-3.478447581,1.764815087,0.480674354,6.107895093
-0.900197188,-1.150139621,-4.718112699,-12.94566871,-4.72757107,-4.563849821,-8.161504418,-3.710204284,-3.847143754,-9.826401272,-9.069159378,0.098964087,-5.990929822,-2.459218054,-5.447653589,-6.526373708,-0.325159135,-1.623129753,4.356579726
-2.633950361,-2.93680479,-5.212908898,-13.50858352,-4.089505998,-3.207282228,-3.593604338,-0.825997607,-1.831730813,-8.963094201,-7.310803635,-0.758896714,-3.574217404,-1.122014823,-6.884186281,-8.139850308,-1.687225505,-2.536279696,3.286307415
-2.893733101,-2.903316177,-4.838696113,-13.29965089,-2.768678338,-0.590868678,0.46800359,1.598307412,0.423623888,-7.55263918,-3.21792425,-0.053437012,0.079110641,0.62151706,-7.458470961,-7.247800498,-1.232984298,-1.94019289,2.920333161
-1.905989213,-1.566613588,-4.000838421,-12.81360627,-1.740176308,1.833666961,1.968330174,2.208372352,1.199501305,-6.688677692,0.982406018,1.422230538,3.257337973,1.722855329,-7.850082715,-4.830066471,0.54363336,-0.679446541,2.626050865
-0.946920648,-0.527648663,-3.49742618,-12.70378515,-1.86685188,2.956526493,1.188706191,0.889719689,-0.167154266,-7.202407157,3.330429495,2.283971536,4.489865916,1.336125948,-8.94567102,-3.102004156,2.082216095,-0.019741681,1.842623381
-1.155935373,-1.023145196,-3.8788673,-13.27911027,-3.152299763,2.768019201,0.192317899,-1.167361066,-2.706129897,-8.955132408,3.371311383,1.79318804,3.607608621,-0.386596526,-10.95421901,-3.711470354,2.118994599,-0.664452413,0.665985988
-2.56837212,-2.881510384,-5.082823318,-14.35017304,-4.693046388,2.186576287,0.841845578,-2.389053535,-4.56549415,-10.91961747,2.10767844,0.414538706,1.784174977,-2.3174331,-13.15277281,-6.475318831,0.666010275,-2.316400074,-0.229179969
-4.203520336,-4.775118309,-6.591439457,-15.49148621,-5.411995311,2.159024076,3.178474925,-2.010681712,-4.475987428,-12.01331744,0.903586249,-0.756027753,0.542723372,-3.210212627,-14.47965408,-9.647340333,-1.176854715,-4.045174491,-0.21301482
-5.04071792,-5.468193358,-7.886442431,-16.41717814,-4.964082376,2.831995334,5.510689364,-0.615030618,-2.714377157,-11.97303588,0.38061319,-1.088781709,0.579038171,-2.666058382,-14.4232283,-11.38276375,-2.276776104,-5.052692073,0.736816421
-4.929897202,-4.899058445,-8.774575811,-17.1177951,-4.039812349,3.482532874,5.982814316,0.362897165,-0.811242869,-11.52121109,0.179157394,-0.99321842,1.353037516,-1.391897408,-13.41308369,-11.11296841,-2.375344643,-5.180164823,2.04754598
-4.610535701,-4.149155919,-9.35508807,-17.68324807,-3.799663461,3.210745467,4.135274856,-0.27810791,-0.323542,-11.69308072,-0.410441398,-1.449619284,1.697291162,-0.56479728,-12.39276691,-9.738877681,-2.084561473,-4.81692808,3.096265066
-4.886806972,-4.390429114,-9.761667385,-18.05009758,-4.907410974,1.755532903,1.114560756,-2.682129369,-1.725763023,-12.912381,-1.67153937,-2.967105025,0.839536121,-0.877993786,-11.98303438,-8.636105883,-2.11123599,-4.415525695,3.754784226
-5.788630716,-5.801432853,-9.981603525,-17.96307379,-6.958999755,-0.261650268,-1.492641578,-5.93195004,-4.263414324,-14.59439976,-3.244973059,-4.962520207,-1.028965544,-2.069329422,-11.97560372,-8.447259369,-2.533680397,-4.101802099,4.423975284
-6.523284845,-7.412760783,-9.908192697,-17.20205066,-8.758167051,-1.825708548,-3.003677794,-8.731256643,-6.720209057,-15.57809541,-4.543413554,-6.159915262,-3.020491425,-3.258216274,-11.56515549,-8.694343312,-2.814725101,-3.690968841,5.540960685
-6.246462248,-7.964182411,-9.508542691,-15.84440007,-9.18713352,-2.286531415,-3.931336286,-10.16420468,-8.311476621,-14.98809008,-5.282069482,-5.675224931,-4.295037656,-3.707894338,-10.06755504,-8.418303013,-2.466356826,-3.001974325,7.038246977
-4.901609699,-6.959198881,-8.879479888,-14.28507514,-7.963835995,-1.74906356,-5.090994226,-10.01133532,-8.957986123,-12.81334611,-5.606377109,-3.826985786,-4.595919647,-3.323834934,-7.48399111,-7.142834341,-1.648232156,-2.10640046,8.276429976
-3.319304992,-4.986216995,-8.117571809,-12.96610321,-5.727127946,-0.836356627,-6.531097847,-8.578478685,-8.888641023,-9.797397692,-5.789204706,-1.950680592,-4.202412246,-2.526584266,-4.468419106,-5.265363543,-1.07826196,-1.26464736,8.533443102
-2.472926461,-3.09445092,-7.165046301,-12.0505116,-3.475056264,-0.120371333,-7.399827903,-6.379921396,-8.157702844,-6.845079355,-5.909854879,-1.362965821,-3.50611234,-1.742144944,-1.812252201,-3.598703296,-1.335356151,-0.641386924,7.623139897
-2.584485872,-1.870068898,-5.848302444,-11.34071871,-1.877413749,0.253546124,-6.876472099,-3.988173946,-6.645877273,-4.507927641,-5.876475116,-2.347132681,-2.701404267,-1.058338267,0.048566478,-2.590865162,-2.247648004,-0.114341303,6.096528542
-2.921135867,-1.072730858,-4.127526784,-10.52315777,-0.993924292,0.477776668,-5.201338949,-2.035659144,-4.513093789,-2.932114649,-5.710758606,-3.991135374,-1.84592772,-0.348515258,1.101796784,-1.99592797,-2.991422733,0.608212005,4.847330811
-2.486031756,-0.109109334,-2.32224987,-9.520284605,-0.506914789,0.717132857,-3.699250643,-1.121151356,-2.51991795,-2.159131289,-5.682681391,-4.970387717,-1.095000409,0.350963404,1.450048306,-1.27744728,-2.844062638,1.655810448,4.458574148
-0.978877675,1.182089675,-1.041019902,-8.626236708,-0.137633959,0.88023468,-3.652012601,-1.493518881,-1.70597709,-2.34780938,-6.037502001,-4.590964398,-0.732234478,0.683091602,1.019377958,-0.304022594,-1.892044112,2.764376322,4.831549241
0.85496779,2.228488972,-0.793364293,-8.291604276,0.161071162,0.749251647,-5.024307944,-2.723431072,-2.558739958,-3.627371097,-6.548154934,-3.249233297,-0.885957534,0.260624516,-0.391740338,0.370448715,-1.008607806,3.383029311,5.370651437
1.818752482,2.209851137,-1.579493461,-8.736019715,0.341951546,0.30059722,-6.280181711,-3.746885874,-4.398682191,-5.730363143,-6.424692914,-2.008729583,-1.237658807,-0.862727076,-2.787152738,-0.065006706,-1.083262338,3.058867037,5.517995432
1.28214475,0.868671676,-2.827505913,-9.723099932,0.486144946,-0.148844707,-5.585166827,-3.434175088,-5.642023683,-7.845006775,-4.851393881,-1.731203412,-1.129412725,-2.048553898,-5.739576504,-1.929309147,-2.188818504,1.792423587,5.168229875
-0.278124646,-1.134947478,-3.778057802,-10.69300193,0.80711556,-0.157874631,-2.414230564,-1.368869626,-4.881008601,-8.970123352,-1.796595586,-2.497814099,-0.11277659,-2.492560725,-8.53897646,-4.671051394,-3.45378235,0.077784592,4.653386265
-1.686701818,-2.684529181,-4.025160523,-11.14064078,1.396830839,0.441765176,1.847431401,1.752607074,-1.973505702,-8.584121682,1.643984368,-3.719484968,1.510365942,-1.896679701,-10.63525797,-7.211509264,-3.78279776,-1.398619081,4.389178774
-2.055699285,-3.088475222,-3.764739525,-10.92560893,1.983603984,1.345695341,4.889883122,4.473110766,1.752143275,-7.092077482,3.816703604,-4.720652307,2.715281239,-0.791087052,-11.98437636,-8.707902883,-2.801320527,-2.161984357,4.541449262
-1.479564384,-2.597340761,-3.540448031,-10.27572184,2.005554493,1.986076142,5.252734496,5.480867611,4.381415617,-5.631175863,3.658222635,-5.238625466,2.465277728,-0.163899962,-12.97631969,-9.079295197,-1.190353682,-2.16721972,4.985511528
-0.853149361,-2.105893046,-3.712896373,-9.521791551,1.01890464,1.985541289,3.396539543,4.421798939,4.706639028,-5.318567513,1.511014039,-5.459881439,0.584524848,-0.662302191,-14.00322737,-8.88367851,-0.114263213,-1.721855278,5.514582219
-1.017908304,-2.325779337,-4.12540981,-8.825070582,-0.877050406,1.46090487,1.188323559,2.032905185,2.930509779,-6.488520628,-1.11296942,-5.681734073,-1.963827098,-2.034402701,-15.05629671,-8.726888848,-0.243821833,-1.233489386,6.028178036
-2.020085073,-3.176323172,-4.265790809,-8.135314364,-2.981462397,0.910605518,0.287981011,-0.455971296,0.297043925,-8.487605378,-2.683802947,-5.991407212,-3.715973321,-3.304579915,-15.70939256,-8.76509169,-1.221402859,-0.986159127,6.502201629
-3.124641904,-3.915296534,-3.774393852,-7.380145123,-4.398156665,0.788568156,0.84060412,-2.148748745,-1.94559051,-10.15823341,-2.793073239,-6.25192271,-3.813944145,-3.554576684,-15.48729933,-8.704361571,-2.007730811,-1.055082245,6.811704584
-3.522257302,-3.844486493,-2.825654788,-6.661321472,-4.614070067,1.13777769,1.552772833,-2.914423665,-3.354944579,-10.61451017,-2.342119607,-6.333501618,-2.694169129,-2.660352925,-14.26872666,-8.19469848,-1.770121146,-1.325201708,6.657002638
-3.049512751,-2.91714689,-2.012635398,-6.230410079,-3.80517866,1.5891653,0.982657954,-3.187094668,-4.280408075,-9.732557692,-2.647906763,-6.295725163,-1.774158432,-1.371776466,-12.36254209,-7.165093878,-0.522325363,-1.533498774,5.745786
-2.266893294,-1.703228567,-1.813038773,-6.238269292,-2.645422994,1.699300958,-1.165757096,-3.43088391,-5.204107877,-8.061612313,-4.267244702,-6.318225814,-2.364210308,-0.685251844,-10.22073403,-5.774169842,1.008916219,-1.324636011,4.104076434
-1.859295665,-0.792240569,-2.112345964,-6.493561794,-1.794075757,1.312906409,-3.876297209,-3.78026095,-6.15246531,-6.337822355,-6.568878765,-6.467466627,-4.666661787,-1.052729921,-8.094818135,-4.098390589,2.102664815,-0.377476996,2.211334727
-1.95380587,-0.237941898,-2.239157522,-6.49588596,-1.474331947,0.646057357,-5.836578587,-4.112714505,-6.733864668,-5.041356479,-8.397305225,-6.56415211,-7.643949924,-2.081462979,-5.974386288,-1.976105129,2.656483128,1.385018484,0.772276448
-2.010920507,0.413981216,-1.528216902,-5.78454366,-1.442282239,0.06196319,-6.622000035,-4.365856377,-6.694701263,-4.296969776,-9.181396619,-6.306420616,-9.814435669,-2.930154275,-3.842961596,0.741189487,3.149179759,3.621944058,0.25877127
-1.393237362,1.554143142,0.054785931,-4.350673588,-1.302059923,-0.2176378,-6.938576789,-4.702279297,-6.365791846,-4.05865515,-9.439093925,-5.533848906,-10.29487092,-3.011952892,-1.950243455,3.74879627,4.043174348,5.624979572,0.584251892
-0.06908674,2.973895341,1.785184921,-2.758251648,-0.857139974,-0.203305955,-7.745669351,-5.330359383,-6.482345514,-4.289315909,-10.18916648,-4.370123472,-9.270765775,-2.39453968,-0.76834102,6.167951007,5.235053349,6.667451261,1.187833845
1.232424375,3.931053042,2.708487456,-1.816730398,-0.21380621,0.003857062,-9.14834434,-6.181737989,-7.487811909,-4.935696889,-11.80534576,-3.10772774,-7.620335802,-1.607659647,-0.615133329,7.028217909,6.09403885,6.480995227,1.468637178
1.601937325,3.81455805,2.424801629,-2.002184358,0.387003666,0.386482789,-10.16170462,-6.825701048,-8.973271855,-5.778093243,-13.40536327,-1.963347119,-6.134913937,-1.109424435,-1.289373724,6.061750506,6.054059779,5.519460944,1.218143272
0.770826757,2.811537924,1.48105654,-3.051704498,0.794709398,1.007401967,-9.616569764,-6.780627587,-9.836551932,-6.402348285,-13.42933229,-0.961495291,-5.042282128,-0.930181019,-2.107936966,4.125151415,5.192762895,4.757636051,0.708870551
-0.568579849,1.921239581,1.016007356,-4.063516347,1.008622199,1.83220451,-7.377352903,-5.971972386,-9.111584866,-6.42415624,-10.99285006,-0.059619689,-4.162403588,-0.78958698,-2.393685602,2.768858582,4.236169803,5.093614601,0.398112202
-1.266445399,2.214325133,1.901243096,-4.077539278,1.051550373,2.593716367,-4.704197777,-4.891611447,-6.79095553,-5.81186908,-6.849128699,0.643039978,-3.401588642,-0.509107529,-2.033968783,3.161327033,3.959980678,6.739638445,0.525751043
-0.649708214,3.917838213,4.033540523,-2.752131482,0.834650483,2.898239299,-3.340036586,-4.248675252,-3.922529409,-4.996518748,-3.054157728,0.882355684,-3.009954413,-0.272688418,-1.618424318,5.168482162,4.519785801,9.032846649,0.946606155
0.888748541,6.102657877,6.32295716,-0.662803753,0.191033307,2.532271168,-4.06796655,-4.372437829,-1.861594462,-4.605213737,-1.509000863,0.479365307,-3.325327326,-0.46318179,-1.998113067,7.347260602,5.314375114,10.81387892,1.303374505
2.140208722,7.27313909,7.383829481,1.001723691,-0.93247548,1.697415079,-6.005299766,-4.897269255,-1.281604607,-4.990497263,-2.530706459,-0.359087125,-4.286909083,-1.235060588,-3.605348714,7.923580678,5.506767757,11.11635091,1.343508297
1.967999745,6.414759895,6.412280479,1.160467662,-2.31898043,0.921672957,-7.291551838,-5.053331951,-1.754810378,-5.942501769,-4.624238213,-1.031214348,-5.267938694,-2.252861848,-6.091249059,6.042681339,4.739687286,9.697898746,1.085930427
0.122426056,3.684692475,3.633360075,-0.487646649,-3.545072013,0.673745218,-6.617524952,-4.358953927,-2.225898154,-6.846075354,-5.656532927,-0.936974606,-5.484259967,-2.874809708,-8.573302137,2.355761947,3.42015358,7.084583563,0.720088886
-2.632173328,0.240245698,0.070090113,-3.266536347,-4.248258104,0.993957388,-4.301744736,-3.124242441,-1.94481665,-7.170255839,-4.488058304,-2.94479E-05,-4.66153214,-2.639731616,-10.26726816,-1.469050393,2.347876904,4.170713462,0.383250437
-5.107367528,-2.59371263,-3.104924475,-5.907836324,-4.378397412,1.473440545,-2.003488843,-2.29195846,-1.054888028,-6.879583143,-1.761496247,1.155516035,-3.342169226,-1.624895457,-10.96521942,-3.888023869,2.04777944,1.714776134,0.057435237
-6.471392836,-4.125590081,-5.135539105,-7.254992469,-4.204235054,1.622687803,-1.329235595,-2.688441053,-0.357041269,-6.410235649,0.734969017,1.611232929,-2.491776424,-0.356363584,-10.9878352,-4.391437529,2.404990289,0.075739488,-0.323833782
-6.624249484,-4.489708317,-5.841742003,-6.848233045,-4.052223751,1.321564293,-2.519301886,-4.275881031,-0.49241838,-6.227590295,1.546267144,0.88800838,-2.689046964,0.638263409,-10.72412692,-3.562170456,2.89088748,-0.7237862,-0.70239737
-5.989605367,-4.225705464,-5.429867403,-5.067197127,-3.995552687,0.954120495,-4.297957304,-6.036305814,-1.275371112,-6.355047661,0.65206239,-0.576160797,-3.584624069,1.226675377,-10.22965316,-2.387729503,3.116399986,-0.79487867,-0.875291786
-5.042219058,-3.734293801,-4.247616303,-2.809820122,-3.768115877,1.096466897,-4.954470653,-6.627821779,-1.760234282,-6.304797814,-0.639462499,-1.636170439,-4.114263565,1.675773828,-9.262720422,-1.485983259,3.169279988,-0.284208681,-0.686325102
-4.03008834,-3.098718372,-2.698925464,-0.961114035,-2.992975799,2.017440956,-3.698868446,-5.335166346,-0.990892222,-5.501297086,-0.809506835,-1.230631668,-3.313029309,2.298332959,-7.693574986,-0.855949441,3.431177172,0.556221091,-0.251054674
-3.063333268,-2.324715265,-1.272356219,0.015764343,-1.544403147,3.421160114,-1.176770142,-2.598788721,1.183984712,-3.853172233,0.715343341,0.838787061,-1.063177443,3.106089837,-5.847809742,-0.221293653,4.085488538,1.290559061,0.034160847
-2.346168819,-1.627517664,-0.480816902,0.170578183,0.259512256,4.653020145,1.184424118,0.262578078,3.881324756,-1.975832757,3.258312719,3.746792401,1.827244502,3.803619423,-4.397994891,0.484854834,4.825179584,1.410944866,-0.233329678
-2.209978718,-1.384801901,-0.618317044,-0.127541296,1.804338068,5.189019822,2.329253604,1.903903362,5.702500228,-0.837247049,5.540556551,6.227503762,4.239512347,4.108742922,-3.851687507,0.993388735,5.072557638,0.652342268,-1.110378343
-2.855102316,-1.763370883,-1.493492834,-0.4778941,2.562459564,4.990032081,2.224465305,1.745898914,5.588922687,-1.074427425,6.62235052,7.440645601,5.504043546,4.060174689,-4.091768822,1.018878079,4.522667573,-0.715448206,-2.188880629
-4.056351351,-2.412905946,-2.426136127,-0.641629535,2.419433207,4.436976141,1.561068449,0.180853613,3.403819383,-2.512106863,6.368880464,7.454749137,5.687763686,3.988502273,-4.414373526,0.661933847,3.495448913,-1.901515852,-2.842458165
-5.176400478,-2.608510581,-2.630390747,-0.57493218,1.700756597,3.94174894,0.944259427,-1.84980702,-0.089917585,-4.268857014,5.214111228,7.01538477,5.261350877,4.168066268,-4.073376683,0.460726502,2.740992437,-1.994143177,-2.660689976
-5.564241542,-1.808742501,-1.772513155,-0.363790942,0.894190867,3.605849318,0.397380634,-3.505992367,-3.719900616,-5.377195668,3.626440633,6.848874999,4.555205519,4.500976799,-2.87247264,1.009027619,2.842774774,-0.52110303,-1.726423327
-5.043117548,-0.167783465,-0.28236256,-0.15842645,0.290993301,3.226883155,-0.403337612,-4.457456551,-6.465232948,-5.4458803,1.832743292,7.096907629,3.547998384,4.576651051,-1.283069633,2.4776727,3.74088434,2.212661959,-0.522600494
-4.071251782,1.480823104,0.869362803,-0.145530154,-0.187894148,2.609760171,-1.509943934,-4.867668291,-7.781207573,-4.871351159,-0.028910734,7.318916658,2.146436029,4.092389683,0.018408139,4.46777485,4.799220373,5.257670901,0.433376532
-3.41557249,2.216001986,0.817081725,-0.518883973,-0.873342632,1.850757989,-2.415861809,-5.115428114,-7.648043572,-4.466042363,-1.6386164,7.000937052,0.599781533,3.248079864,0.775216502,6.315524449,5.354966692,7.542217325,0.915756526
-3.58979464,1.730330904,-0.589424764,-1.398670806,-2.050081593,1.299194243,-2.452478004,-5.532453966,-6.472370108,-4.815579661,-2.50772238,6.102780034,-0.449792228,2.70802958,1.36414971,7.563096051,5.259861563,8.435467694,1.03261695
-4.506789058,0.550636937,-2.670760953,-2.7193719,-3.705430119,1.225324952,-1.49739839,-6.291689534,-4.934565328,-5.856795627,-2.321336573,5.181195511,-0.412018311,3.100150134,2.393595032,8.186324912,4.940964973,7.994962279,1.011730548
-5.606884692,-0.417805956,-4.395522044,-4.182921488,-5.491871644,1.52332088,-0.258099491,-7.38589867,-3.76662313,-6.965379087,-1.252496611,5.001045379,0.70148231,4.461957262,4.045734122,8.425308889,4.951385586,6.785843966,0.974232779
-6.321202678,-0.642743683,-5.096525751,-5.366583298,-6.908395277,1.762588232,0.238613748,-8.598618524,-3.44939003,-7.44279683,0.124090766,5.952120147,2.172456111,6.130529641,5.771197144,8.438599812,5.439125437,5.454848333,0.905881111
-6.468350233,-0.376834918,-4.893119376,-5.963943905,-7.567158812,1.573706549,-0.445597046,-9.492791603,-3.953815668,-7.016786258,1.286857945,7.705428404,3.087719409,7.205720145,6.641141379,8.137790537,6.018764535,4.371230835,0.802227019
-6.279839524,-0.386991278,-4.517382655,-6.005569982,-7.380264412,1.020783805,-1.690193445,-9.541790304,-4.745055173,-6.009048966,2.148323729,9.324813109,3.05725107,7.209743952,6.07113342,7.344362557,6.145048822,3.541188596,0.774333109
-6.095069787,-1.24277289,-4.697501932,-5.876720518,-6.570717494,0.593613048,-2.283872703,-8.444216591,-5.149682057,-5.106323871,2.945157146,9.721882737,2.494872295,6.381211606,4.285541349,6.073109352,5.624157281,2.77670603,0.950274814
-6.040473298,-2.775435466,-5.576684765,-6.076172461,-5.519412644,0.787339592,-1.496985703,-6.449122169,-4.8958235,-4.951495164,3.700800483,8.165559944,2.178472425,5.358392244,2.109737867,4.623280976,4.784642015,1.936870585,1.2473915
-5.976384874,-4.161926869,-6.598857473,-6.862636077,-4.544225878,1.627879586,0.162583157,-4.39770007,-4.425622994,-5.844502535,3.807191835,4.607872692,2.459500552,4.550793262,0.272119357,3.364801646,4.160682977,1.059748958,1.2738395
-5.716109913,-4.553074188,-6.926987101,-8.049898996,-3.736517505,2.582987325,1.217149933,-3.333602417,-4.681591761,-7.695781916,2.255447072,-0.259737421,2.843521004,3.779701292,-1.164065018,2.427603767,3.997257237,0.324046386,0.539569743
-5.26985997,-3.721013782,-6.067485214,-9.125126225,-2.94859396,2.976487879,0.360725938,-3.871365256,-6.453362952,-10.16487915,-1.5236189,-5.204590943,2.37108113,2.52456619,-2.736346139,1.609075858,4.042080043,-0.097137956,-1.136530118
-4.869840525,-2.218244228,-4.245888721,-9.621284138,-1.942806525,2.571696761,-2.436535315,-5.75625998,-9.736878272,-12.81687477,-6.878409147,-8.864856532,0.523560673,0.553957827,-4.956224879,0.594411132,3.805131269,-0.186930797,-3.371896885
-4.766542546,-0.976275578,-2.287095793,-9.460544847,-0.611033337,1.816106815,-5.768793835,-7.958395994,-13.58364148,-15.18842738,-11.96873376,-10.29090175,-2.119505951,-1.6500979,-7.703843148,-0.743470027,3.019827285,-0.169321424,-5.396503137
-5.011663829,-0.727129684,-1.117536697,-8.985228413,0.888686885,1.513685117,-7.717013246,-9.258220143,-16.55885407,-16.78444928,-14.75355563,-9.414924172,-4.080657485,-3.104491147,-10.21462094,-2.29396297,1.856115533,-0.50339713,-6.586980456
-5.444754446,-1.71776922,-1.252328782,-8.630157148,2.195302203,2.184447218,-7.114761988,-8.908927435,-17.47315222,-17.09993599,-14.25668983,-7.156243262,-3.945220833,-3.04348142,-11.69136535,-3.983192131,0.687124707,-1.782056642,-6.94957514
-5.888956286,-3.86538819,-2.599012574,-8.490124906,2.987793626,3.649688777,-4.180738604,-6.919823634,-15.8806949,-15.72873418,-11.12817533,-4.972602411,-1.340881391,-1.547575057,-11.9946789,-6.07780358,-0.345597344,-4.539203579,-7.135201308
-6.351568371,-7.090404178,-4.656955813,-8.152742428,3.2357001,5.192772049,-0.117361041,-3.831449603,-12.07848948,-12.53220182,-7.042344996,-4.003386286,2.83057027,0.463484581,-11.76916752,-9.119470924,-1.515626861,-9.004202846,-7.929224568
-7.023219148,-11.43832261,-6.919602104,-6.98443689,3.243765479,6.148984132,3.863282836,-0.264557231,-6.766934524,-7.780762447,-3.417874698,-4.310162507,7.060051449,1.890251658,-11.85323746,-13.40397492,-3.225996752,-14.89955011,-9.595610369
-8.072596372,-16.85331862,-9.181027204,-4.698624621,3.412326734,6.40941196,7.224550571,3.337531314,-0.755979334,-2.189120125,-0.509318509,-4.778794046,10.22326188,2.231991629,-12.46897074,-18.39332848,-5.498452705,-21.40358858,-11.59516913
-9.438784149,-22.83922495,-11.5545521,-1.778592156,3.867967934,6.409384902,10.00896953,6.601564574,5.060712134,3.185760109,2.397888167,-3.859609684,12.10907653,1.857734787,-12.91536004,-22.63484936,-7.732131119,-27.34338142,-12.91055916
-10.82781528,-28.38364081,-14.22885858,0.610262702,4.264383317,6.636146061,12.22586574,8.974429346,9.608447893,7.172056556,5.905664742,-0.710971146,13.14924756,1.583242068,-12.07692787,-24.4268924,-9.01341746,-31.55794996,-12.7311472
-11.92004159,-32.30205577,-17.16060918,1.229287888,3.964031041,7.119564701,13.43407007,9.717522541,11.75108787,8.798652426,9.525424107,4.054696708,13.7146827,1.948572369,-9.357542594,-22.85203239,-8.762546749,-33.26389818,-10.97805658
-12.58780764,-33.78755974,-19.92920591,-0.48138327,2.520524156,7.379901033,12.98177303,8.299536475,10.77484639,7.629868395,11.72175116,8.60649823,13.67091714,2.810839875,-5.266721322,-18.42210591,-7.176267231,-32.25150238,-8.302005308
-12.91416119,-32.76609611,-21.86110114,-4.0121459,0.1086942,6.887248042,10.68507362,4.915203315,6.96350285,4.000984855,11.02219577,11.00309376,12.57604371,3.553164293,-1.161271999,-12.80707203,-5.079607527,-28.84929233,-5.617244925
-13.00438264,-29.81704239,-22.35453406,-8.023706599,-2.465532263,5.613404718,7.263089109,0.638436678,1.748889764,-0.991823808,7.300595593,10.40697985,10.27095896,3.663594871,1.653811403,-7.807138416,-3.307820699,-23.73514943,-3.571642361
-12.79611312,-25.77026954,-21.2097929,-11.06221411,-4.247773092,4.156655867,4.034235681,-3.056485994,-2.866971389,-5.835011561,2.140220596,7.541460879,7.244351564,3.14654669,2.736094249,-4.3206897,-2.147334695,-17.73407766,-2.329420234
-12.08526389,-21.31957228,-18.76566477,-12.29169385,-4.786310738,3.291297213,2.0452965,-5.15846046,-5.373501496,-9.199328254,-2.099805168,4.087181101,4.381395247,2.43193152,2.595506873,-2.059628297,-1.301454613,-11.689048,-1.723108625
-10.77182729,-16.91314051,-15.75838191,-11.81131066,-4.453199023,3.313057316,1.342968694,-5.75060231,-5.611385116,-10.53563126,-3.845739287,1.504674749,2.301539266,1.929147988,2.054337667,-0.158830725,-0.367742882,-6.385649183,-1.528219684
-9.093090784,-12.8948899,-12.98523267,-10.43317789,-4.154883827,3.756671136,1.01483293,-5.90401079,-4.805064041,-10.32837047,-3.316500031,0.169034425,0.896609085,1.680831325,1.474388891,1.883236933,0.645685083,-2.458661603,-1.590835532
-7.587832136,-9.65208364,-10.97005643,-9.142330173,-4.618899535,3.761061176,-0.011307854,-6.867376441,-4.70108642,-9.809831094,-2.228056109,-0.592939549,-0.484039711,1.434113286,0.520544677,3.723203789,1.259174015,-0.256397345,-1.77079977
-6.76602858,-7.564712407,-9.818264258,-8.602803523,-5.794765467,2.802686763,-2.05691684,-9.128338083,-6.386914627,-10.24288426,-2.457092501,-1.706404229,-2.342355728,1.017911571,-1.372932853,4.511721661,0.974632425,0.267925942,-1.885296147
-6.740888768,-6.787659524,-9.318388841,-8.954432541,-6.847314311,1.187502711,-4.40395618,-12.03104811,-9.592949658,-12.16481324,-4.695410742,-3.505655451,-4.449765817,0.613390446,-4.289964792,3.707985381,-0.189233176,-0.466875172,-1.814560815
-7.146497789,-7.087637731,-9.182484953,-9.905040796,-6.774096546,-0.123714623,-5.83515339,-14.21710807,-12.92212775,-15.04648949,-8.065024668,-5.517467145,-5.914431872,0.618373769,-7.530669487,1.645162488,-1.602112762,-1.855563698,-1.695542367
-7.435528012,-7.920696089,-9.235712332,-10.95992904,-5.188193209,-0.234464353,-5.537225606,-14.54523092,-14.79002991,-17.59033774,-10.87448085,-6.966056953,-5.872008672,1.221110549,-9.996570243,-0.628310425,-2.490781055,-3.35861435,-1.94714348
-7.320134583,-8.715816458,-9.42756148,-11.63399961,-2.666010853,0.995464833,-3.647235125,-12.81700213,-14.3956038,-18.49819498,-11.84507223,-7.48976949,-4.221266148,2.110465201,-10.93202248,-2.070234079,-2.56753142,-4.661163014,-2.971435814
-6.983170726,-9.142465056,-9.696141376,-11.59397747,-0.387566966,2.832900516,-1.068469888,-9.827419982,-12.09662782,-17.23990857,-10.87618172,-7.428450623,-1.776568222,2.648774114,-10.39208078,-2.3056379,-2.247580544,-5.647023464,-4.703077796
-6.877795359,-9.162213599,-9.845110309,-10.749269,0.660798087,4.208272941,1.20762998,-6.785691751,-9.040469659,-14.34870665,-8.880773479,-7.460091478,0.294604802,2.401716237,-9.064468473,-1.700249036,-2.241851993,-6.246339451,-6.419587079
-7.290315235,-8.867713033,-9.581031347,-9.291824774,0.32299639,4.46939469,2.691280515,-4.584503288,-6.406178582,-11.06935009,-6.963590022,-7.944361998,1.278920996,1.559179227,-7.640234429,-0.857711427,-2.87769978,-6.318369218,-7.098286467
-8.048843022,-8.296644072,-8.710511535,-7.636346529,-0.708548536,3.772008339,3.486076324,-3.420520447,-4.790713744,-8.595039103,-5.639391512,-8.566379041,1.315370867,0.841829733,-6.297914805,-0.040075485,-3.760739043,-5.691234948,-6.157242324
-8.63259504,-7.400535387,-7.334287347,-6.229167719,-1.463900155,2.851616394,3.949993144,-2.925102548,-4.06156894,-7.381640767,-4.631547274,-8.585706678,1.108885003,0.934590968,-4.726889148,0.971778477,-4.099192969,-4.327635335,-4.020425148
-8.585206055,-6.167700677,-5.845457346,-5.296622147,-1.388636904,2.418591459,4.325674438,-2.574411916,-3.632544792,-6.963052692,-3.274231557,-7.46087898,1.272058613,1.921670057,-2.613835036,2.500405937,-3.419046287,-2.454041085,-1.986238342
-7.871973407,-4.733573877,-4.684137139,-4.699928338,-0.642016377,2.675552966,4.660984315,-2.021264018,-2.888575097,-6.360198538,-1.117337946,-5.311373797,1.884468247,3.21688885,-0.110053452,4.478896826,-2.03380306,-0.503634169,-1.387501303
-6.877679623,-3.32889979,-4.012334816,-4.036497321,0.164318951,3.291345256,4.984317547,-1.171367422,-1.503121105,-4.799243379,1.709928054,-2.84749509,2.602411538,4.055950243,2.159172632,6.333847336,-0.831255952,1.120852644,-2.621301737
-6.063572977,-2.098596612,-3.57110729,-2.959430851,0.505869165,3.761526033,5.439044679,-0.094657549,0.446371821,-2.272646752,4.54922651,-0.869244212,3.124159288,4.120270592,3.547517238,7.371076794,-0.536235357,2.290162675,-4.796148293
-5.598566293,-0.983387698,-2.86660238,-1.499091799,0.304793199,3.800127528,6.163305601,1.03731479,2.528558427,0.405544644,6.547994909,0.216494112,3.509524466,3.743931221,3.884410396,7.319644065,-1.079358283,3.193619619,-6.310966186
-5.287731449,0.18041811,-1.576383785,-0.129526535,-0.139760689,3.457996569,7.019454096,1.923264797,4.114590304,2.070635864,7.038907827,0.476839407,4.036997469,3.528979031,3.563810989,6.540576466,-1.628245167,4.12923607,-5.967053305
-4.840966556,1.401770029,0.126660966,0.509923763,-0.512447654,2.954779415,7.494857666,2.132346373,4.608760766,1.901240664,5.800095735,0.140633915,4.764789615,3.728217151,3.147357161,5.706117116,-1.276786255,5.190815935,-3.793663316
-4.215218547,2.363341367,1.601019343,0.06425407,-0.768694241,2.455757339,6.97858655,1.278303948,3.708758525,-0.088541108,3.147486311,-0.747462454,5.278069365,3.96753996,2.84141716,5.225049507,0.175890955,6.101794637,-0.987919241
-3.704615446,2.548956542,2.128329305,-1.24157285,-1.093417481,2.013342495,5.262768116,-0.662362526,1.592483628,-3.042902968,-0.142749537,-2.348227852,4.948247659,3.575218304,2.316761477,4.909236166,2.005958876,6.344620543,0.94553319
-3.692007053,1.626071334,1.401778517,-2.694576258,-1.602135013,1.67619532,2.858333369,-3.126868637,-1.093530036,-5.728314481,-3.078680066,-4.701364193,3.538594244,2.232661947,1.031446298,4.160800634,3.086910643,5.509375336,1.175644075
-4.289578475,-0.21547533,-0.245498402,-3.53042964,-2.095746111,1.582688558,0.810863893,-5.095028403,-3.485506543,-7.182290284,-4.814045846,-7.38109356,1.618257434,0.356925012,-1.226690772,2.511654873,2.725137567,3.613021213,-0.066566194
-5.198489214,-2.27896727,-2.045170174,-3.418914104,-2.128115604,1.884548883,0.091002931,-5.597009434,-4.882790087,-7.176958427,-4.981906773,-9.511805286,0.350791484,-1.151814977,-4.049380431,0.062008393,1.144137701,1.156239013,-1.883543081
-5.918486035,-3.771593324,-3.286174286,-2.665190397,-1.357484683,2.550899753,0.985517212,-4.315226109,-5.047655561,-6.259770495,-3.813488572,-10.21996682,0.735619422,-1.606482236,-6.616375951,-2.526545317,-0.731015675,-1.126393607,-3.462190333
-6.123589697,-4.317779872,-3.740292963,-1.997805376,0.11115945,3.266300764,2.927806074,-1.866540553,-4.262116878,-5.386157479,-1.957317346,-9.210850016,2.863461727,-1.082504799,-8.222106195,-4.446704195,-1.961334037,-2.6530734,-4.543688514
-5.876062678,-4.174847055,-3.725454022,-2.101049863,1.694921663,3.58205294,4.872201385,0.468462359,-3.140134951,-5.37709275,-0.115946986,-7.020077576,5.776854938,-0.345749861,-8.683537712,-5.222625502,-2.184143169,-3.26779436,-5.310397807
-5.503878358,-3.976143877,-3.78783801,-3.207720289,2.665599016,3.245475895,5.918428196,1.432595012,-2.33728669,-6.502006357,1.24924317,-4.718997296,8.067640825,-0.216419342,-8.318652137,-4.908521233,-1.688502439,-3.247874826,-5.930333472
-5.271121232,-4.205549451,-4.260594293,-4.997752407,2.605594359,2.437018278,5.750446024,0.473917368,-2.318180293,-8.386749637,1.966061528,-3.260937091,8.773892644,-0.908674052,-7.564688426,-3.941054074,-1.026249928,-3.080840564,-6.263505328
-5.147260241,-4.822470849,-5.025640006,-6.82317778,1.653277105,1.685524522,4.650981975,-1.991882361,-3.24725135,-10.25399004,2.000787798,-2.917359433,7.924461267,-1.89858673,-6.599147901,-2.843632671,-0.564247554,-3.177373836,-6.013893654
-4.874676788,-5.326735349,-5.627550353,-8.074993947,0.375963642,1.491197347,3.188989568,-4.869035349,-4.971850426,-11.33363781,1.331779441,-3.176775942,6.377763801,-2.411544637,-5.28944514,-2.017374881,-0.340697483,-3.685269739,-5.143444231
-4.250798508,-5.189128316,-5.617317139,-8.456306273,-0.608150883,1.942095841,1.868124557,-7.00387619,-7.058215586,-11.21789874,0.016219209,-3.145067045,5.145607504,-2.092876345,-3.483334121,-1.683348215,-0.242487021,-4.467886849,-4.095836143
-3.346472436,-4.282846088,-4.851124849,-8.032028899,-0.974511908,2.633672797,0.953107713,-7.755144481,-8.898883478,-9.995126801,-1.623213191,-2.155470847,4.737736826,-1.288598058,-1.349695519,-1.876410084,-0.225355254,-5.206950827,-3.552235679
-2.452487199,-2.972087349,-3.538553035,-7.085511994,-0.787470678,2.961988471,0.481397839,-7.215060445,-9.929861253,-8.13074888,-2.954730063,-0.194780972,4.96415353,-0.721198363,0.553515458,-2.403773615,-0.321913658,-5.553237637,-3.888719466
-1.809604832,-1.814988082,-2.048891628,-5.913606367,-0.346105552,2.559791312,0.335189558,-6.031142794,-9.913845985,-6.195041607,-3.321577823,2.089430367,5.22675891,-0.870006239,1.560497326,-2.828765394,-0.464085015,-5.271724592,-4.807577825
-1.384827877,-1.153855499,-0.662789748,-4.690421365,0.04776578,1.535704997,0.288469238,-4.999786555,-9.125811209,-4.601185654,-2.525573099,3.763408566,4.98196385,-1.597173132,1.306231725,-2.622036158,-0.37852216,-4.354533334,-5.491226347
-0.914419191,-0.932205726,0.534046671,-3.458848772,0.224972598,0.34814171,0.06089667,-4.674713181,-8.261504423,-3.48751499,-1.116421885,4.123108806,4.022408635,-2.31420334,-0.05546224,-1.503631003,0.248095524,-3.070782934,-5.1853213
-0.182964858,-0.857336623,1.564013817,-2.226655086,0.14538651,-0.55489827,-0.555957178,-5.161149151,-8.050160085,-2.778063502,-0.158213909,3.069259227,2.466225376,-2.500941031,-1.975027823,0.23049271,1.433177236,-1.909767091,-3.749394975
0.717853219,-0.72700237,2.392676916,-1.089520726,-0.161131112,-1.025927383,-1.531381907,-6.138660412,-8.792046911,-2.344503898,-0.542200652,1.158933039,0.594904109,-2.103941055,-3.853630144,1.702080721,2.718915393,-1.400850941,-1.740854727
1.396964722,-0.620452309,2.851852162,-0.289343933,-0.615111825,-1.222719893,-2.530921041,-7.055585556,-10.15222768,-2.1368391,-2.327262298,-0.683119313,-1.270975536,-1.490572423,-5.351752389,1.882937489,3.388047005,-1.870553419,0.010237059
1.446443357,-0.803914964,2.724184176,-0.146091882,-1.064573517,-1.370108748,-3.074381024,-7.39310396,-11.39276284,-2.186191811,-4.639735621,-1.64763939,-2.810886507,-1.057145968,-6.473334952,0.229278561,2.963945291,-3.269782935,0.968978702
0.759100502,-1.466420497,1.91626049,-0.874092133,-1.294224115,-1.518002149,-2.85991474,-6.892206645,-11.9017714,-2.489712405,-6.261877777,-1.469048521,-3.749822912,-0.888076233,-7.433545695,-2.936146964,1.594527198,-5.195216219,1.158611364
-0.391174058,-2.541362095,0.571287426,-2.383425214,-1.123178994,-1.509576231,-2.021387677,-5.656945534,-11.63418384,-2.891169823,-6.489414891,-0.555699152,-3.979968916,-0.776105928,-8.456720484,-6.603844215,-0.02440328,-7.116197493,0.963789109
-1.567875497,-3.768512385,-0.97705102,-4.214981091,-0.546633444,-1.167011702,-1.092111543,-4.093319691,-11.1288534,-3.089330115,-5.603207184,0.276798662,-3.683951272,-0.543558618,-9.64136708,-9.705947238,-1.152788122,-8.671921259,0.708057927
-2.489767896,-4.917660091,-2.380161647,-5.704974644,0.201853647,-0.507106774,-0.662581184,-2.712700572,-11.08763272,-2.812099194,-4.593407188,0.334007757,-3.298889631,-0.310670401,-10.92564899,-11.72310305,-1.531190085,-9.838736945,0.388074524
-3.172740487,-5.948808676,-3.450950879,-6.324854703,0.758318246,0.216622783,-0.971318423,-1.894574017,-11.8402263,-2.047712035,-4.366807379,-0.490715355,-3.259218961,-0.415711263,-12.1098851,-12.82091237,-1.493419999,-10.84953564,-0.243070119
-3.791834905,-6.954888711,-4.216441338,-5.990059355,0.866717974,0.685276648,-1.734917014,-1.724212011,-13.09877268,-1.141211816,-5.069987157,-1.628163023,-3.669525101,-1.042278705,-12.9019656,-13.4609904,-1.586846279,-11.92711702,-1.375576062
-4.416422265,-7.948054049,-4.818973306,-5.106915521,0.586303808,0.751144102,-2.339721422,-1.978024227,-14.1674415,-0.630806179,-6.041803097,-2.203555025,-4.177528304,-1.916021466,-12.99960466,-13.86631757,-2.046977428,-13.03635315,-2.918599936
-4.878473825,-8.707557147,-5.350158629,-4.286837285,0.302883403,0.54161927,-2.238611059,-2.249692574,-14.42019748,-0.889786612,-6.381500774,-1.622803499,-4.199314521,-2.400155188,-12.22495757,-13.82063364,-2.592693866,-13.85050066,-4.525230779
-4.899073921,-8.860932495,-5.746353248,-3.907501949,0.506992638,0.352053074,-1.259893345,-2.146615164,-13.68452217,-1.818622212,-5.636895824,0.033971604,-3.368717238,-1.965846134,-10.66305151,-12.96157468,-2.71291753,-13.96556546,-5.791382747
-4.352617269,-8.161611205,-5.824733978,-3.847209608,1.468882626,0.422663197,0.354775517,-1.471996295,-12.29337152,-2.84399307,-4.076309536,2.085251011,-1.878664084,-0.658364036,-8.697865433,-11.27196129,-2.16949282,-13.20487611,-6.424963686
-3.419710304,-6.740916573,-5.435324248,-3.618210528,3.020840013,0.774301614,2.130320322,-0.331698127,-10.85164044,-3.283357249,-2.406526147,3.71267363,-0.441930614,0.850132936,-6.87387735,-9.289209582,-1.246808328,-11.78312362,-6.275348442
-2.483167593,-5.114093312,-4.619703835,-2.823278008,4.593245893,1.211973148,3.563480021,0.868073132,-9.946095038,-2.85043751,-1.258649487,4.45406619,0.116255017,1.697654221,-5.634972866,-7.805022824,-0.512581338,-10.20293399,-5.297063737
-1.856029532,-3.908222192,-3.657293051,-1.583505544,5.490297724,1.468402402,4.228733901,1.550153209,-9.972674253,-1.927007988,-0.883744279,4.368652787,-0.653805595,1.42724825,-5.104486891,-7.291514149,-0.305330098,-8.957104294,-3.582149437
-1.578637217,-3.496382037,-2.950263369,-0.570475139,5.245981774,1.371627483,3.832114092,1.213225398,-11.06636513,-1.353412203,-1.217246589,3.812957214,-2.586657757,0.27767775,-5.059410382,-7.548945268,-0.422369746,-8.250816166,-1.465874692
-1.45148633,-3.791601313,-2.80365067,-0.565452509,3.861068261,0.93565633,2.330041036,-0.277080671,-13.02149119,-1.832989948,-2.096300519,3.091563211,-5.030030221,-1.035950041,-5.111334043,-7.888241505,-0.308662448,-7.933635913,0.457102862
-1.253674467,-4.329353383,-3.231933598,-1.851776704,1.799982432,0.349385329,0.107441581,-2.501647886,-15.19331695,-3.359040819,-3.320667694,2.316454887,-7.194649945,-1.843751937,-4.950856444,-7.696243404,0.407992211,-7.665637061,1.560993135
-0.93651068,-4.559176202,-3.918235756,-3.913651753,-0.237356335,-0.103400335,-1.976259938,-4.567347458,-16.54900349,-5.104918163,-4.508826315,1.564020143,-8.475977376,-1.92088161,-4.476791626,-6.896492532,1.517533115,-7.16910707,1.592020476
-0.621865955,-4.138569764,-4.365448434,-5.708754225,-1.640623606,-0.155402349,-2.881687573,-5.500839696,-16.0482699,-5.912284261,-5.021775009,1.09334298,-8.606989329,-1.490494651,-3.746867702,-5.913309828,2.345109205,-6.371013311,0.937826566
-0.428827236,-3.057069376,-4.159747845,-6.345472957,-2.146360737,0.323250721,-1.989247885,-4.797213902,-13.28525785,-5.074695754,-4.239812997,1.303133886,-7.674509698,-0.911956229,-2.845308532,-5.189761455,2.315679166,-5.350325065,0.464309207
-0.313317385,-1.561732496,-3.191376907,-5.670118768,-1.908509767,1.225925683,0.360635495,-2.799054178,-8.996047153,-2.869937235,-2.118153038,2.364394109,-6.089043747,-0.377113016,-1.817554922,-4.707693371,1.489033212,-4.172706756,0.936950852
-0.084292939,0.017393615,-1.698786,-4.323440144,-1.361004067,2.194367833,2.851636631,-0.611872225,-4.958417931,-0.443755961,0.450774655,3.844861437,-4.509956439,0.134237483,-0.725460811,-3.955686479,0.588526676,-2.78353995,2.422677734
0.41672758,1.417107151,-0.112627829,-3.228227578,-0.953609759,2.746393572,3.869718429,0.479587156,-3.147631674,0.90260997,1.944863681,4.765574953,-3.638073027,0.673906476,0.272975452,-2.38841117,0.464609269,-1.068702829,4.161324812
1.146509747,2.50438327,1.195123917,-2.905460332,-0.902880744,2.528433579,2.525787635,-0.210331079,-4.570345705,0.544151755,1.173231371,4.223514443,-3.851527314,1.168318399,0.962465902,0.025857826,1.415937963,0.964598214,5.069828979
1.866685662,3.267569818,2.093621476,-3.138287577,-1.089094706,1.562348787,-0.664278693,-2.279293,-8.539414071,-1.078681473,-1.741401811,2.193395901,-4.860372463,1.478196639,1.256378402,2.666840851,2.924050838,3.054498605,4.533338151
2.324998091,3.778516491,2.699221526,-3.216405117,-1.14972569,0.307575578,-3.973853903,-4.384107621,-12.94984611,-2.758614498,-5.169533585,-0.157315992,-5.688340257,1.612982472,1.382605283,4.684163845,4.026947492,4.745549132,2.873337027
2.446069115,4.150560581,3.226326165,-2.534121125,-0.711137738,-0.552061379,-5.482042853,-4.980210462,-15.45934159,-3.275298427,-6.882286776,-1.038800355,-5.158276853,1.84515795,1.860749814,5.643903114,4.040281109,5.640238816,1.112964161
2.36047307,4.49403758,3.810432929,-1.05527453,0.375123245,-0.500455579,-4.268701672,-3.223758856,-14.83668937,-2.084903219,-5.528770528,0.775725439,-2.687909254,2.539881373,3.200344472,5.859642362,3.061329815,5.673211773,0.21780607
2.255934304,4.872119479,4.434488825,0.702016821,1.92127754,0.484769458,-0.996467719,0.507230165,-11.60920549,0.474411069,-1.641314994,4.971568354,1.125498578,3.79401882,5.491655362,6.123855082,1.876728887,5.196587551,0.416245272
2.200459623,5.27485274,4.991766685,2.099429478,3.468966224,1.898786365,2.494842911,4.777738507,-7.628158077,3.502047835,2.601000238,9.696165005,4.625729473,5.202825468,8.198999506,7.052705231,1.371231879,4.784814317,1.132430131
2.105772993,5.629101137,5.402396743,2.839250537,4.483781859,3.004338437,4.284860562,7.827704307,-4.912133264,6.068797163,4.732344461,12.64767125,5.976653384,6.015454249,10.3621401,8.574000366,1.905576813,4.869253103,1.550623593
1.855667447,5.838474351,5.664282149,3.074226587,4.573908506,3.263260735,3.431790714,8.430017881,-4.568811799,7.58541366,3.541636529,12.54075779,4.291500082,5.627291322,11.12268253,9.963423523,3.11268618,5.447482588,1.307953558
1.459803696,5.824369108,5.792154185,3.116989399,3.639037691,2.62176615,0.362605212,6.409706095,-6.435881752,7.84822739,-0.263653422,9.923692319,0.258851987,4.052391122,10.23903008,10.38504636,4.20446216,6.075789998,0.728830322
1.070270138,5.544663759,5.715225501,3.048896232,1.907969784,1.479316111,-3.533381166,2.610428728,-9.499544117,6.893063562,-4.660160423,6.763819497,-4.192019886,1.995301725,8.239008413,9.49979638,4.502144519,6.164730893,0.435159384
0.839526226,4.996648669,5.257594025,2.600165977,-0.130554467,0.396844793,-6.728991402,-1.579807451,-12.62699342,4.895468811,-7.649394753,5.101310199,-6.996013065,0.435267603,6.103234799,7.684085193,3.797491073,5.387981554,0.719214106
0.765384982,4.23046465,4.261491476,1.416953598,-1.881341742,-0.234914714,-8.261836359,-4.841216996,-15.06601679,2.216323613,-8.354786151,5.727952579,-7.110581165,0.011647702,4.692929446,5.739486699,2.356732523,3.932435506,1.264035348
0.693104086,3.380678882,2.780349422,-0.522109285,-2.850027793,-0.356647348,-7.994287971,-6.388760733,-16.50231771,-0.53009153,-7.205561251,7.792004604,-4.994552347,0.650484212,4.296572707,4.369415112,0.675922415,2.421382271,1.467411943
0.493657638,2.681365706,1.181421927,-2.7193315,-2.847658196,-0.175075386,-6.459634117,-6.155163688,-16.86964401,-2.584258178,-5.293827628,9.52918952,-2.165921233,1.680767579,4.564327725,3.829172051,-0.769907722,1.559983176,1.065436307
0.251715946,2.413060846,0.040141783,-4.391638172,-2.099466444,0.024766513,-4.520343316,-4.696785983,-16.22775114,-3.370290296,-3.552188587,9.524253703,-0.215527483,2.319658425,4.82363945,3.951301739,-1.63981259,1.732294362,0.463477188
0.261402141,2.771618774,-0.142010038,-4.959888058,-1.165853991,0.038903176,-3.02710464,-2.900890831,-14.81232496,-2.845254818,-2.359214203,7.603539005,0.051266894,2.157114985,4.532044024,4.422013389,-1.742085014,2.800958996,0.430862916
0.792410876,3.725235375,0.777055981,-4.411319584,-0.663900275,-0.200331659,-2.535123569,-1.595925317,-13.08420393,-1.570961468,-1.675928108,4.819105356,-1.13001732,1.32162074,3.57773179,5.022013902,-1.064558221,4.217334169,1.388713326
1.811574152,4.967624136,2.482811073,-3.252826176,-0.912507929,-0.645566835,-3.085731179,-1.189410211,-11.5633177,-0.378679233,-1.353078752,2.67185431,-2.830159295,0.284541652,2.2811288,5.653554118,0.157440992,5.347639882,2.911930973
2.91594226,6.030747448,4.362948197,-2.102250655,-1.716986554,-1.168284344,-4.126733986,-1.480681244,-10.47141055,0.184135184,-1.223901733,2.197204493,-4.010449128,-0.482355265,1.152096257,6.213980219,1.440934393,5.798707148,3.92035334
3.571441396,6.510293264,5.817847463,-1.248015791,-2.462207688,-1.583858252,-4.69291359,-1.764210974,-9.479765809,0.229926968,-0.959951938,3.497642269,-3.959356842,-0.736679657,0.580270576,6.510568497,2.229928872,5.557336317,3.461205232
3.487491068,6.26638279,6.52666999,-0.516733775,-2.494238284,-1.698241353,-3.867695663,-1.215990102,-7.866652853,0.429624351,-0.007060814,5.880470305,-2.44588479,-0.481252524,0.631970164,6.334729315,2.199539146,4.901018291,1.471990948
2.826247519,5.469670418,6.523582924,0.47119261,-1.559128103,-1.399184579,-1.330280156,0.613549915,-5.078788295,1.477295921,2.126230684,8.339582882,0.304041614,0.146320689,1.039584594,5.627493671,1.481369744,4.183136426,-1.097414806
2.070892956,4.469884616,6.080120168,1.885845107,0.000519827,-0.752594713,2.351486748,3.47468856,-1.316005735,3.497429719,5.348904792,10.0099304,3.668815285,0.966503036,1.368998876,4.565951415,0.604592409,3.646064829,-2.916674257
1.659031285,3.587063158,5.508297083,3.450669959,1.440832505,-0.020253934,5.923808667,6.46908809,2.339175512,5.831486612,8.70486469,10.40969974,6.729274464,1.778992791,1.277212963,3.476202443,0.147565455,3.356185754,-3.172188729
1.681026864,2.967893222,5.014569843,4.564465022,2.079364175,0.449227704,8.073375041,8.470210441,4.425791544,7.374628162,10.72064694,9.515849153,8.506937756,2.370022544,0.733196549,2.646194214,0.335751241,3.251353186,-2.044967594
1.879389505,2.582452119,4.659586168,4.679738383,1.705834339,0.406498018,8.10580322,8.683321748,3.946247671,7.240633399,10.2864117,7.772196192,8.364661,2.575258388,0.077608535,2.201289414,0.890178267,3.227381716,-0.445142368
1.921562549,2.32362463,4.393325969,3.653403196,0.660672489,-0.158163255,6.259109805,7.032456787,0.980305322,5.305812126,7.475524631,6.015008135,6.388430815,2.378385293,-0.140033282,2.132802439,1.251062309,3.200239041,0.720955038
1.689008501,2.108589996,4.108810892,1.830882562,-0.45039453,-1.017807688,3.48831336,4.174709742,-3.339458914,2.280696122,3.655529515,5.213282612,3.45903427,1.945688635,0.513047962,2.415033372,1.010569848,3.132192506,1.138871639
1.331294385,1.912097981,3.689854187,-0.165454868,-1.172359956,-1.844366445,0.911611929,1.165781318,-7.448912028,-0.707258593,0.72646583,6.014739737,0.862292487,1.52700142,2.04581795,3.067203658,0.224386805,3.043958532,1.102677238
1.06237875,1.741334103,3.063213107,-1.773490407,-1.43965242,-2.36855863,-0.706898628,-1.017907575,-10.13534069,-2.720637143,-0.025996852,8.30605215,-0.392750857,1.275954804,3.963454314,4.08962224,-0.63115223,3.022871164,1.049346959
0.91470426,1.609690661,2.25660427,-2.734793156,-1.496889475,-2.455649252,-1.165799889,-1.85946336,-11.00064731,-3.429699816,1.322701002,11.11287776,-0.12984812,1.136816097,5.502489969,5.349421283,-1.01241851,3.204830283,1.089245339
0.697026651,1.541722975,1.42469582,-3.129889315,-1.623070205,-2.081036203,-0.721554951,-1.441333521,-10.41565494,-3.141970652,3.480183175,13.0131669,0.93736955,0.907561744,6.057712363,6.557529971,-0.696889594,3.70367299,0.954623816
0.199979851,1.582346235,0.792934015,-3.243116226,-1.91750551,-1.282585534,0.139636644,-0.339822455,-9.139505196,-2.51962956,4.81584555,12.88560186,1.691694692,0.439688055,5.525148002,7.393449915,0.075677854,4.504039796,0.368940452
-0.550067131,1.763416174,0.520505995,-3.379217242,-2.312003255,-0.168480023,0.878573846,0.641030325,-7.929359794,-2.22250945,4.327253745,10.53658457,1.315801994,-0.192913309,4.323501731,7.681232529,0.785292786,5.388048339,-0.551144454
-1.243880379,2.02999283,0.566411641,-3.734872342,-2.746238407,1.029915567,1.008141256,0.790017016,-7.33923785,-2.676483241,2.069496629,6.789313039,-0.247153858,-0.708836349,3.07841979,7.456240655,0.972634304,5.974152341,-1.26821085
-1.516077884,2.197713769,0.676118126,-4.354870915,-3.292343415,1.95600358,0.212711631,-0.232338745,-7.675741259,-4.00810218,-1.114082562,2.97421506,-2.342224099,-0.817882924,2.20034542,6.861016209,0.487425813,5.883691259,-1.224670039
-1.2529469,2.020184744,0.5383439,-5.146111607,-4.076481915,2.255322953,-1.485793637,-2.243593456,-8.969712695,-6.062114604,-4.221755922,0.168323039,-4.068111448,-0.445067302,1.6630187,5.979503102,-0.4966583,4.955466367,-0.326853648
-0.699330558,1.362096252,0.028135309,-5.915167024,-5.059339332,1.790266623,-3.624307356,-4.587001576,-10.90935096,-8.422695668,-6.589697851,-1.318330278,-4.814183619,0.203116359,1.128353766,4.789888917,-1.650457836,3.37634019,0.919908391
-0.253623277,0.363192596,-0.639966817,-6.41781985,-5.901714008,0.78439988,-5.419112612,-6.387645291,-12.83453134,-10.45425963,-8.001045346,-1.922250406,-4.539548409,0.782311044,0.289836547,3.302850934,-2.680503384,1.634834851,1.762600911
-0.121964959,-0.554156786,-0.98713784,-6.425453209,-6.094252065,-0.250522379,-6.139078804,-6.92894991,-13.92808958,-11.44363956,-8.518971397,-2.376359968,-3.691081351,1.045487417,-0.857513894,1.750399615,-3.419393632,0.312793429,1.760477832
-0.139489062,-0.885974828,-0.555914315,-5.80648603,-5.300852417,-0.798594955,-5.535357069,-5.97714795,-13.5978371,-10.87583981,-8.319064256,-3.199807941,-2.894340321,0.987713009,-2.033407088,0.598529538,-3.810717472,-0.170243448,1.099763947
0.072430935,-0.348534264,0.773180496,-4.600962533,-3.653528898,-0.651473113,-4.022501501,-3.883225555,-11.84534849,-8.738836497,-7.665651292,-4.457342837,-2.635324738,0.807803066,-2.934946409,0.286875929,-3.864950558,0.275535952,0.41565436
0.741151568,0.921825862,2.652142014,-3.052113158,-1.739002846,-0.019239864,-2.441897183,-1.401393072,-9.352766144,-5.651580281,-6.937935261,-5.85237685,-3.073851667,0.747119854,-3.49653948,0.857291587,-3.646455812,1.401470874,0.278623857
1.689820742,2.417782606,4.420281929,-1.562206683,-0.249382125,0.647439267,-1.536519225,0.679882184,-7.168959122,-2.656920336,-6.526913146,-6.971941676,-4.007180284,0.946078416,-3.910613345,1.788875042,-3.280330344,2.746863132,0.763093604
2.428107529,3.534397149,5.447524121,-0.564130094,0.45627079,0.990542923,-1.491087552,1.895475231,-6.142739798,-0.720324781,-6.577042114,-7.464873855,-4.945998231,1.408809751,-4.393779234,2.244179212,-2.928279294,3.822003104,1.429226699
2.522861255,3.887337568,5.448439924,-0.341715392,0.548575476,0.979286951,-1.855381988,2.267924008,-6.437138107,-0.199886941,-6.77395138,-7.089138883,-5.281079523,2.051965824,-4.917402058,1.612695401,-2.715548827,4.275266473,1.70507907
1.940506194,3.476913256,4.583156216,-0.877284972,0.535370435,0.874303039,-1.893306072,2.214277091,-7.42846804,-0.631821545,-6.435257516,-5.72743782,-4.530906538,2.751684242,-5.161573674,-0.030745469,-2.655373506,4.006305771,1.348163239
1.074070518,2.621426982,3.314558026,-1.824157838,0.836831058,0.968112136,-1.101015084,2.268390289,-8.067747018,-1.019458611,-4.954950686,-3.477105446,-2.60989708,3.344943801,-4.758524765,-1.915562689,-2.639636951,3.205941928,0.630839674
0.435776739,1.742816697,2.143175982,-2.660878519,1.4607218,1.322800607,0.460395726,2.770728799,-7.507893898,-0.495513522,-2.338970784,-0.775638086,0.021378331,3.628448524,-3.630827153,-3.058591381,-2.51563214,2.299485716,0.132057411
0.276561609,1.160934872,1.387761092,-2.979466488,2.018164281,1.715079821,2.214317563,3.675016686,-5.641439813,1.049033818,0.578548609,1.610717863,2.469238369,3.425270941,-2.128804037,-2.911287704,-2.193729466,1.779650717,0.316729098
0.444593846,1.002039329,1.110446235,-2.747041731,2.0437682,1.820417505,3.427596007,4.56078807,-3.231996668,2.806411195,2.48055298,2.869489831,3.804555032,2.717660838,-0.8237667,-1.707479702,-1.702063298,1.96895357,1.213459431
0.578594912,1.219581294,1.176111591,-2.35125578,1.353848064,1.47653066,3.63027796,4.855689973,-1.532982898,3.527975324,2.331439718,2.615706341,3.569916757,1.744047727,-0.097068911,-0.2670813,-1.15036941,2.826162093,2.394003989
0.444600344,1.660706821,1.371722551,-2.35238579,0.172795633,0.817742902,2.860648633,4.179109154,-1.567181553,2.374960779,0.094206221,1.257573106,2.097213302,0.941532241,0.155235052,0.586109137,-0.642825583,3.934321596,3.232209237
0.118115642,2.128715121,1.518337663,-3.070998331,-1.036393354,0.19113327,1.640510711,2.638635442,-3.456341598,-0.408852564,-3.088047628,-0.065552065,0.401767244,0.721456591,0.456819811,0.560410915,-0.217499588,4.723666924,3.254398397
-0.128438003,2.442981376,1.546619785,-4.293707246,-1.871970209,-0.062087491,0.724466932,0.887921506,-6.217660324,-3.493275459,-5.42604506,-0.052162435,-0.341273014,1.212837653,1.351237783,0.012818447,0.143753588,4.822249454,2.379158133
-0.102464641,2.511676461,1.526358405,-5.339587543,-2.19142768,0.204436772,0.734936354,-0.15805132,-8.226876289,-5.201685385,-5.470153571,1.96158136,0.533879702,2.162008864,2.950059599,-0.396764977,0.459944347,4.306727405,0.944943801
0.136119117,2.392698732,1.635227094,-5.488131601,-2.101343936,0.889272102,1.816135139,0.142889487,-8.158125062,-4.558017881,-2.986367341,5.463994355,2.7565597,3.075402199,4.755509215,-0.220272906,0.712585126,3.659848852,-0.457764619
0.361749595,2.280607319,2.056781887,-4.488824181,-1.81592223,1.713361504,3.45787461,1.67542655,-5.861374093,-1.952127887,0.80873672,8.88647614,5.203967368,3.511445071,5.891438047,0.479352279,0.860756615,3.435201734,-1.259720793
0.433717083,2.386570157,2.838711523,-2.777204068,-1.536090169,2.334277387,4.631457473,3.482720933,-2.583730363,1.052186338,3.839419038,10.39428166,6.480363775,3.317508129,5.598179829,1.230976185,0.887299477,3.852369591,-1.174828769
0.458627911,2.769547589,3.795076176,-1.215110698,-1.422759688,2.45223754,4.274144183,4.236217256,-0.293034001,2.678956153,4.303389622,8.935463619,5.689255362,2.660704278,3.681719429,1.535973349,0.822396937,4.619402467,-0.33613793
0.695554249,3.247524502,4.54136905,-0.527423201,-1.609488538,1.912189465,1.943874507,3.04617495,-0.451854958,2.050539555,1.725913645,4.93066362,2.975279473,1.867883902,0.652917859,1.220536913,0.716450292,5.127521046,0.7716027
1.278404067,3.484258257,4.676943485,-0.848388777,-2.161173672,0.807285238,-1.733197695,0.111418719,-3.023425659,-0.29244727,-2.684754733,0.155504727,-0.477115547,1.225155878,-2.508212365,0.515401472,0.588852615,4.88668313,1.571722997
2.011385613,3.215563611,4.017540896,-1.712407426,-2.973282858,-0.472966567,-5.188272122,-3.261659876,-6.414565589,-2.800876056,-6.637681488,-3.172576164,-3.015680488,0.881308018,-4.817733529,-0.153669505,0.407135529,3.882684087,1.719218255
2.444690392,2.454884677,2.72327187,-2.474201762,-3.720230598,-1.346196062,-6.667961271,-5.356687539,-8.457382266,-3.951948814,-8.021124096,-3.606944388,-3.377359452,0.875578859,-5.732972301,-0.475328251,0.123854275,2.591643956,1.291959867
2.197624551,1.516218437,1.226018855,-2.800992847,-3.96718611,-1.319401192,-5.240155291,-5.05316719,-7.795636601,-3.182043952,-6.105988517,-1.277055496,-1.370212675,1.195837226,-5.360318377,-0.430446482,-0.257390057,1.649863629,0.712630029
1.275119265,0.828560164,0.001477654,-2.831832631,-3.426888545,-0.319719801,-1.40947992,-2.489468243,-4.721114167,-1.098205724,-1.954964558,2.208663336,2.009220388,1.775953681,-4.334608819,-0.231482818,-0.646696863,1.439245757,0.440819114
0.114782475,0.680254893,-0.656029012,-2.89423868,-2.186479499,1.165724315,3.113626165,1.056830784,-0.877713309,1.100414444,2.243140508,4.726534881,5.113342963,2.446335267,-3.435550266,-0.096672555,-0.900837916,1.899427378,0.648599176
-0.685802235,1.081964559,-0.709142208,-3.059489111,-0.70599105,2.307556954,6.398500127,3.978253038,1.929381297,2.489566686,4.516513501,4.894966515,6.54842104,2.939635593,-3.136078056,-0.039426531,-0.906874996,2.678678207,1.1190926
-0.758275415,1.828834692,-0.284974786,-2.965499384,0.4520837,2.430353178,7.408456316,5.275417665,2.929380945,2.916455775,4.273130311,2.852087241,5.924848252,3.020686218,-3.328114258,0.170698966,-0.659629094,3.45623444,1.444470777
-0.181135497,2.67395793,0.469093492,-2.100818587,0.982913796,1.467520573,6.507517554,5.005733345,2.720565532,2.82410516,2.523646038,0.068815261,4.002237804,2.675570036,-3.400754739,0.842829308,-0.282393153,4.145671996,1.36463523
0.617597347,3.449729964,1.442477293,-0.319398275,1.018294454,0.032183197,5.045903349,4.011145062,2.565571683,2.664927777,1.035367383,-1.67167627,2.141925612,2.191742107,-2.657403141,2.102840173,0.020545031,4.822970256,0.972514629
1.172727436,4.056400624,2.500986736,1.883893754,0.982297999,-0.98625364,4.360891789,3.21496961,3.2746271,2.468698661,1.030668825,-1.449937128,1.418692388,2.008910211,-0.836665272,3.715789179,0.054105098,5.490028632,0.620472602
1.267271977,4.390739213,3.41458853,3.633973813,1.234844123,-1.035112236,4.918289833,3.035169534,4.584632641,1.935954494,2.360541805,0.238672608,1.96643391,2.403392194,1.607052562,5.136359924,-0.273416348,5.941846905,0.61170962
1.006369447,4.353384616,3.907332268,4.311128149,1.78383358,-0.278785309,6.16006821,3.283946882,5.484117814,0.920633428,3.72587523,1.908092202,2.97312143,3.234841671,3.693201088,5.794443881,-0.887657941,5.906002026,0.941725779
0.678240628,3.976314821,3.844744469,4.047159588,2.288365352,0.537814405,7.06224962,3.496388755,5.13374439,-0.20419509,3.737078016,2.156178073,3.29585532,3.975351287,4.502146893,5.458595305,-1.547811543,5.350330459,1.310531423
0.545930164,3.543463131,3.410473334,3.641769291,2.337189716,0.641351038,6.898437269,3.322963209,3.56294776,-0.706442389,1.983418086,0.621065168,2.247219873,4.03996688,3.788958442,4.433325215,-1.930495583,4.657584212,1.391351662
0.716502982,3.517714933,3.075942379,3.924010098,1.767480579,-0.217473045,5.634710323,2.666258019,1.567449965,-0.104089065,-0.697327627,-1.840803975,0.011475319,3.197232216,2.190318307,3.417232982,-1.788140202,4.43970643,1.118607821
1.12843524,4.229516385,3.305941659,5.058540095,0.770287349,-1.618311414,3.759211537,1.55204162,-0.042651188,1.300712042,-2.916615504,-3.833843117,-2.554056139,1.757758892,0.844797606,3.063395057,-1.115905856,5.069524036,0.742258992
1.601512194,5.524087449,4.173565372,6.370485058,-0.280950986,-2.816782884,1.820922843,-0.014466262,-1.130231462,2.484644157,-3.811116796,-4.419056165,-4.522485041,0.393114756,0.658667993,3.511498111,-0.218852549,6.288206919,0.602197494
1.88852984,6.680681837,5.183655041,6.85286473,-1.111598443,-3.288865318,0.12013265,-1.987099308,-2.22733965,2.404779386,-3.635545881,-3.691001767,-5.432017893,-0.290687039,1.717449397,4.228613432,0.40185567,7.244909098,0.82399696
1.729131777,6.763285595,5.49431648,5.956954665,-1.693978691,-3.051141496,-1.243385507,-4.066410179,-3.864505855,0.815096512,-3.432018678,-2.564320874,-5.394656685,-0.124972839,3.252412216,4.316452664,0.315222792,7.010607772,1.206855227
0.942086764,5.22532999,4.43951492,4.022288779,-2.155263613,-2.542339812,-2.140051816,-5.620931476,-5.883200398,-1.481480729,-4.096634016,-2.019115505,-4.799513767,0.551348414,4.174813665,3.113954573,-0.575906918,5.222564081,1.40371231
-0.449829257,2.343881594,2.008453306,1.993578252,-2.556840019,-2.213058537,-2.333945787,-5.960260327,-7.41447191,-3.205667818,-5.639110716,-2.43774727,-3.945772629,1.141179356,3.784705225,0.682170111,-1.963792535,2.38005024,1.23333654
-2.144734484,-0.867594193,-1.066179775,0.661390743,-2.765344908,-2.183753494,-1.698317652,-4.846846229,-7.60669158,-3.587107728,-7.238412752,-3.52151967,-2.93621278,1.15902769,2.156091255,-2.191691619,-3.333221496,-0.444570031,0.845854495
-3.634180668,-3.247921452,-3.697344703,0.059153063,-2.543260375,-2.233628663,-0.514150133,-2.83828042,-6.482195252,-2.982343458,-8.011842016,-4.751721404,-1.867364399,0.475302014,-0.02897369,-4.497522104,-4.304014545,-2.274551924,0.592434098
-4.431037221,-4.172888983,-5.058254598,-0.483394818,-1.781830831,-2.079995654,0.503940601,-1.094829161,-5.132173892,-2.606680546,-7.818607326,-5.910498604,-1.047542311,-0.67984734,-2.001419097,-5.656220277,-4.866089312,-2.78629886,0.7123285
-4.327636986,-3.847095775,-5.010811491,-1.680811041,-0.664522181,-1.668772996,0.595958364,-0.682646169,-4.996643551,-3.560646301,-7.408610244,-7.178833849,-0.942661617,-1.890864665,-3.34866293,-5.841089659,-5.3183389,-2.365191731,1.113521556
-3.504416723,-3.013491015,-4.075164254,-3.583174439,0.397943223,-1.218968868,-0.491119745,-1.839400937,-6.770260102,-5.906328555,-7.800204534,-8.760209651,-1.824220576,-2.764772926,-4.073637634,-5.732209246,-5.951917258,-1.672431865,1.442611115
-2.398422013,-2.337759593,-2.996703767,-5.412478323,1.027971419,-1.007270938,-2.242467487,-3.764259482,-9.83375394,-8.525131395,-9.432782936,-10.4431719,-3.422256907,-3.073027191,-4.321670216,-5.911284657,-6.736522314,-1.109559633,1.387267912
-1.41535233,-1.956867258,-2.237105002,-6.082620567,1.138477027,-1.114482774,-3.671290787,-5.133328012,-12.70821905,-9.878173939,-11.82873512,-11.59012678,-4.953745645,-2.816215875,-4.103127065,-6.387801898,-7.285386282,-0.608969039,0.953378725
-0.68833074,-1.514237978,-1.734912408,-4.979900869,0.987588718,-1.375388082,-3.993102336,-4.994303075,-14.19495094,-9.085399293,-14.05966381,-11.64656701,-5.61164126,-2.235176412,-3.300173532,-6.634828127,-7.15558176,0.132182606,0.483775984
-0.050356312,-0.587694873,-1.056144754,-2.382850605,0.989339262,-1.571890037,-3.179604088,-3.399927957,-14.30217824,-6.506481506,-15.62208068,-10.7503159,-5.188407551,-1.759148478,-1.942080135,-6.088557942,-6.252515165,1.244579938,0.409665954
0.776883391,0.894475921,0.226144477,0.782592897,1.422447818,-1.678271503,-1.975839048,-1.340461944,-14.24389391,-3.421906671,-16.97362206,-9.85576048,-4.331149169,-1.854899865,-0.44820326,-4.678109345,-4.994604287,2.505610884,0.948809987
1.933892626,2.603714257,2.213512348,3.608347548,2.243221149,-1.918402671,-1.384579713,-0.068104631,-15.55923564,-1.123130733,-19.25893314,-10.1529935,-4.164818356,-2.789459326,0.465135821,-2.927903556,-4.068640089,3.552258208,1.992893414
3.298528631,4.132080877,4.621807707,5.732234268,3.116042926,-2.56847792,-2.027058473,-0.340724556,-19.09105715,-0.146078097,-23.42818429,-12.16995644,-5.507471371,-4.419957084,0.226577003,-1.539799306,-3.940207249,4.275635502,3.245335646
4.556889714,5.356949415,6.96442253,7.338923345,3.614400346,-3.674376664,-3.847042675,-2.111953294,-24.60978441,-0.197606952,-29.45767998,-15.27534546,-8.246297767,-6.1722102,-1.119607578,-0.809921685,-4.501601306,5.000281173,4.451191814
5.390603661,6.501317794,8.809522148,8.720396571,3.444360392,-4.936670786,-6.309792692,-4.7931132,-31.27140131,-0.717973086,-36.30612109,-18.04073833,-11.35389317,-7.283073778,-2.81178037,-0.382957655,-5.148645996,6.234200461,5.501080453
5.635536017,7.838943032,9.941631313,9.843341175,2.561066418,-5.874827495,-8.848592698,-7.767731764,-38.40195816,-1.517336553,-42.65310631,-19.25309678,-13.55632396,-7.197648706,-3.775856828,0.436606167,-5.23853035,8.170992475,6.337135791
5.322777352,9.332432272,10.37369275,10.31601318,1.145520164,-6.143277235,-11.16901991,-10.71589241,-45.90329716,-2.929777619,-47.85219455,-18.83133389,-14.18049418,-5.87528308,-3.28280754,2.072449295,-4.569050669,10.38211253,6.796422946
4.620115896,10.56190032,10.26839541,9.753603884,-0.505128913,-5.746684683,-13.22591603,-13.56499303,-54.00396189,-5.402394139,-52.37673761,-17.94296482,-13.58380398,-3.796635154,-1.401233725,4.279533717,-3.498629397,12.01412795,6.597173239
3.750624355,11.03737418,9.852350613,8.176855228,-2.099076588,-4.994980074,-15.01836266,-16.25299434,-62.70545299,-8.945294351,-57.44181403,-18.2200902,-12.89034391,-1.668078007,1.062914919,6.296677633,-2.620535787,12.3886648,5.536246154
2.938098606,10.62977232,9.356186093,6.065506068,-3.436881078,-4.260587441,-16.48827273,-18.62567416,-71.51869337,-12.97099391,-64.10499546,-20.6586379,-13.2614061,-0.034846687,3.069802311,7.415086979,-2.271428647,11.54148098,3.747195315
2.368455515,9.730845158,8.963937628,4.019913312,-4.448768124,-3.752784087,-17.64322403,-20.58813579,-79.74920676,-16.67982007,-72.49774206,-25.0052627,-15.22513059,0.932907234,3.919963713,7.479805705,-2.285734558,10.2498301,1.773146715
2.137960493,8.980906212,8.759961294,2.34594215,-5.176926067,-3.480326672,-18.73743642,-22.31375117,-87.01864996,-19.64673518,-81.68503166,-30.02990045,-18.48043212,1.368472735,3.524942481,6.911913196,-2.19227739,9.493104032,0.336599504
2.201479006,8.78476436,8.701862149,0.939695954,-5.703614663,-3.386538433,-20.23579999,-24.20791312,-93.46200004,-22.0805399,-90.16738329,-34.39544121,-22.2043216,1.465311338,2.269263031,6.265278095,-1.671006466,9.752223906,-0.061411756
2.379430837,9.029549547,8.661422112,-0.438157374,-6.052092782,-3.488205626,-22.47994563,-26.54996556,-99.35787619,-24.51594909,-96.6245172,-37.42712878,-25.5553545,1.28863979,0.659502819,5.736005823,-0.868228671,10.69451243,0.577327963
2.462115377,9.246285441,8.530158115,-1.773864487,-6.122732455,-3.867400577,-25.29816937,-29.08909424,-104.5357247,-27.20281611,-100.4373777,-39.25665715,-28.02053477,0.781775336,-0.947104556,5.068523287,-0.29449913,11.48756314,1.800038554
2.364400821,9.06871384,8.319496244,-2.680250927,-5.728101326,-4.527743678,-27.93596363,-31.00271378,-108.1917006,-29.73284184,-101.7836287,-40.3807634,-29.47298555,-0.087626975,-2.388497677,3.928975174,-0.390152777,11.4819262,3.047680463
2.211904765,8.581832281,8.169393608,-2.678818414,-4.731115114,-5.274658922,-29.46937024,-31.37530859,-109.4284774,-31.2529796,-101.4143784,-41.13281507,-30.05896348,-1.218419534,-3.595492968,2.380384468,-1.128676204,10.71161848,4.027938303
2.266271107,8.251681386,8.244469842,-1.642569214,-3.201285408,-5.770507479,-29.45615863,-29.90697227,-108.163392,-31.12020534,-100.3419582,-41.54501816,-30.09916959,-2.424306703,-4.515377828,0.99024241,-1.994822772,9.821706365,4.838745642
2.721231708,8.500308189,8.594411042,0.003424651,-1.461972059,-5.755356435,-28.33033672,-27.30116965,-105.6233984,-29.47318188,-99.57190801,-41.63996122,-30.05685143,-3.587941941,-5.144869294,0.43033148,-2.355659924,9.50730434,5.768622856
3.522413499,9.305319241,9.096369201,1.525522157,0.040044257,-5.259458781,-27.19101356,-24.96274183,-103.879143,-27.24760164,-99.86352033,-41.75472172,-30.46808846,-4.751372153,-5.597757316,0.900904457,-1.915561701,9.942383088,6.951873482
4.366794479,10.18214447,9.535649515,2.385387259,0.980966431,-4.617959413,-27.08490549,-24.1461351,-104.6131723,-25.59609999,-101.4759669,-42.46763621,-31.72762346,-6.027073744,-6.076210044,1.899864133,-0.88879474,10.66627545,8.157643758
4.902014532,10.5686839,9.763699909,2.592354318,1.35822629,-4.252604403,-28.27874226,-25.13157123,-107.9650296,-25.13374538,-103.9662259,-44.09289426,-33.78778265,-7.391747182,-6.714904872,2.579355121,0.224434822,10.99896486,8.874769701
4.977404117,10.27755893,9.801818223,2.62099212,1.4927023,-4.378216097,-30.04258222,-27.01759982,-112.3039712,-25.55447513,-106.2092548,-46.16795879,-35.99348097,-8.558365233,-7.417891064,2.419236051,1.03802027,10.6133883,8.625935806
4.744474378,9.624589121,9.801781719,2.979052881,1.821277137,-4.857280022,-31.09671496,-28.28460537,-115.1262256,-25.87512005,-106.7622931,-47.4558588,-37.26085187,-9.076904439,-7.851672253,1.649927513,1.508739588,9.776076339,7.285279291
4.521238033,9.130696005,9.897782268,3.795746506,2.618331318,-5.308859757,-30.40425003,-27.73926912,-114.4742322,-25.10814494,-104.4885378,-46.60515329,-36.5861226,-8.619496055,-7.639971018,1.049203978,1.82613163,9.066660083,5.189759297
4.530171788,9.068688254,10.08004384,4.760246271,3.835182645,-5.379163234,-27.7755857,-25.20549886,-109.9472006,-22.89066653,-99.140919,-43.05894015,-33.60984536,-7.232052197,-6.628494102,1.266458524,2.109415869,8.838735427,2.989057569
4.726998211,9.253539976,10.20204584,5.424919068,5.155661247,-4.966030835,-23.9265619,-21.54450226,-102.7298157,-19.67901091,-91.56349607,-37.54540394,-28.87591019,-5.341737352,-5.015178316,2.240201854,2.221160609,8.900888003,1.342703891
4.860360446,9.246239662,10.11359296,5.582149117,6.208238013,-4.245244979,-20.02849162,-18.06918872,-94.77700203,-16.44647727,-83.35458199,-31.74774651,-23.59895473,-3.500709334,-3.24395556,3.207645439,1.880881775,8.695973016,0.639243668
4.703815141,8.767519504,9.796358934,5.389051231,6.774957588,-3.512745836,-17.09400839,-15.7941897,-87.79365057,-14.13262629,-76.14212467,-27.34438714,-19.06833677,-2.060278307,-1.75009095,3.307604606,0.96914962,7.817132118,0.866558168
4.253142316,7.936692007,9.372182697,5.161246827,6.865327329,-2.988367025,-15.56445183,-14.98718196,-82.61680039,-13.18744936,-70.85241858,-25.06915888,-16.04568592,-1.022304252,-0.756338911,2.273239279,-0.274391073,6.402517596,1.666150737
3.714893201,7.122934754,8.967399227,5.049964975,6.641623271,-2.723272948,-15.25437313,-15.20766461,-79.18353043,-13.4282911,-67.36369413,-24.41528204,-14.50048784,-0.16243953,-0.258401859,0.633839516,-1.365737025,5.054109565,2.523722083
3.299396921,6.560997036,8.551523327,4.897072722,6.285880383,-2.639751173,-15.57315588,-15.69099939,-76.86178338,-14.22020615,-64.72198207,-24.13140968,-13.79878731,0.703339875,-0.16744075,-0.736898069,-1.925693553,4.340443946,3.00734528
3.008626379,6.10497916,7.904453281,4.377854135,5.910684211,-2.622742352,-15.84541196,-15.78789407,-74.82759203,-14.84092245,-61.7836814,-23.10853708,-13.18318221,1.540045744,-0.452729483,-1.334008186,-1.965057148,4.310255194,2.953837243
2.617912876,5.366912765,6.765029218,3.278063062,5.547527201,-2.570667256,-15.59235459,-15.23978018,-72.34521382,-14.8450104,-57.91269407,-21.03780541,-12.23605547,2.135966409,-1.154682498,-1.388999776,-1.853729207,4.444192789,2.518905389
1.879224868,4.123882383,5.056916296,1.651677756,5.175559298,-2.389985837,-14.70786944,-14.22857202,-68.9798077,-14.26757325,-53.33027702,-18.45430184,-11.07004512,2.298297618,-2.27958438,-1.592163492,-1.995923774,4.099533584,2.058785131
0.771581346,2.61042445,3.009154369,-0.256437758,4.743689247,-1.992407599,-13.48788148,-13.24447192,-64.76120637,-13.57343587,-48.91489852,-16.24710334,-10.17624027,2.012757781,-3.702873907,-2.428674486,-2.491484035,3.074757386,1.898949593
-0.428555644,1.39444647,1.060111009,-2.211529548,4.182297793,-1.346815857,-12.47727897,-12.83899947,-60.19553822,-13.36129031,-45.57596837,-15.04888958,-10.05535855,1.435426266,-5.190493782,-3.715147441,-3.074261332,1.806615618,2.125446477
-1.33494049,0.905896187,-0.397923857,-4.104538774,3.435431826,-0.559602984,-12.15824002,-13.3370654,-56.00618173,-13.9623894,-43.59510446,-14.90837875,-10.85871448,0.754608959,-6.521674852,-4.739393864,-3.372497418,1.017434638,2.538861709
-1.749037133,1.021935777,-1.245976703,-5.885767808,2.524613854,0.106639028,-12.62072159,-14.61800935,-52.67200669,-15.1652515,-42.36772114,-15.37016085,-12.24067192,0.076481436,-7.589811496,-4.875915846,-3.252402952,1.101585712,2.81079914
-1.812190318,1.103195207,-1.664375969,-7.417344127,1.60169668,0.339534813,-13.42923897,-16.09896565,-50.06172412,-16.26095099,-40.73532154,-15.79480164,-13.50045969,-0.555900597,-8.378029138,-4.135483642,-2.936811614,1.776141448,2.734735534
-1.868027796,0.509939748,-1.934586446,-8.42691979,0.925522769,-0.033552027,-13.82034906,-16.98515976,-47.47711163,-16.41576921,-37.70824081,-15.65741348,-13.93251806,-1.05404767,-8.835227639,-3.165843124,-2.795917597,2.312801848,2.381968289
-2.132087967,-0.792763417,-2.163947264,-8.634377153,0.744526613,-0.906585755,-13.14610914,-16.68691753,-44.13166282,-15.14742318,-33.09890696,-14.678952,-13.18797332,-1.235554911,-8.790525389,-2.696766255,-3.001812503,2.181182228,2.038256778
-2.436964126,-2.043619927,-2.140621725,-7.938431892,1.150869108,-1.927984977,-11.28065798,-15.15719859,-39.72306037,-12.58782225,-27.6308203,-12.82056674,-11.44042337,-0.932303625,-8.02418743,-2.902005623,-3.359146039,1.573359249,1.970707115
-2.276441205,-2.10519124,-1.433769626,-6.482432545,2.011705358,-2.707718801,-8.707865287,-12.91908571,-34.64720799,-9.35860919,-22.45294867,-10.24890357,-9.263574511,-0.184126437,-6.469237659,-3.22228377,-3.464008775,1.353964406,2.219018421
-1.142735643,-0.213710009,0.319320671,-4.539330805,3.032991154,-3.064653597,-6.232428969,-10.75442571,-29.68225184,-6.17321038,-18.4191167,-7.324439346,-7.306820447,0.673600851,-4.378471662,-2.802682956,-3.047160358,2.437747225,2.591873155
1.080282438,3.485634245,3.125949146,-2.34134946,3.908533669,-3.139009007,-4.532085604,-9.267637392,-25.41651325,-3.47919468,-15.65712737,-4.567019608,-5.981187432,1.163475477,-2.289652124,-1.185908189,-2.192647229,5.064503578,2.876452144
3.955028441,7.995034365,6.535941698,-0.034536324,4.443947731,-3.284403273,-3.865260144,-8.620191041,-21.90453049,-1.391048621,-13.70944091,-2.525469178,-5.345811787,0.993023918,-0.771697345,1.295005394,-1.238015037,8.532931991,3.076820116
6.679036005,12.03392576,9.789120895,2.205136844,4.580868833,-3.808247424,-4.087363884,-8.576315419,-18.80885764,0.115692522,-12.05886578,-1.55119412,-5.222462332,0.31188999,-0.114667255,3.710781026,-0.455274833,11.59232892,3.454709533
8.493661697,14.67320229,12.12345097,4.058299907,4.34642671,-4.733875386,-4.860566982,-8.742927182,-15.8248878,1.021935818,-10.54286464,-1.580331538,-5.387984087,-0.327011712,-0.183090103,5.114331483,0.181825282,13.17181839,4.304151427
9.038532695,15.58809687,13.06708686,5.154446215,3.817357725,-5.740597636,-5.813236586,-8.757530325,-12.9273102,1.339640872,-9.280758865,-2.069079443,-5.652850465,-0.313243806,-0.535065417,5.018315432,0.909910233,12.87846386,5.626333519
8.438840553,14.83590743,12.56042541,5.375841464,3.150243994,-6.318775309,-6.528868334,-8.291430728,-10.17934738,1.395896133,-8.202439029,-2.162144268,-5.771881922,0.603171196,-0.714050083,3.436551183,1.827200139,10.91956306,6.982837618
7.114508807,12.4578016,10.86349592,5.114466929,2.625993846,-6.043422596,-6.486115426,-6.974448662,-7.328758742,1.988874964,-6.676093082,-1.046023328,-5.331710974,2.127952957,-0.504015807,0.576959639,2.602903074,7.607385286,7.68711681
5.48274992,8.315173458,8.330424405,5.164537306,2.599738796,-4.806696395,-5.172967782,-4.463997428,-3.70313191,4.094442693,-3.704190764,1.670561258,-3.827024375,3.611420121,0.012449688,-3.422445528,2.551309204,2.958972318,7.230117882
3.762788867,2.326851336,5.204644341,6.193957968,3.314415473,-2.884174927,-2.429232055,-0.736492531,1.312218963,8.171967923,1.32798766,5.734075703,-0.982846448,4.470986856,0.592364106,-8.409014667,1.085470852,-3.194663175,5.638595969
1.980638513,-5.103948977,1.56702524,8.132288876,4.683190455,-0.807620952,1.224377467,3.607406663,7.515093416,13.54924238,7.913995941,10.29976228,2.883304176,4.540160479,1.02976461,-13.8636179,-1.769157925,-10.64924956,3.498519424
0.1161845,-12.87490587,-2.534834916,9.987120705,6.232495132,0.882247507,4.632693099,7.372126858,13.54774699,18.45553671,14.37650722,14.25296059,6.795543384,4.105728156,1.264319128,-18.68554948,-5.214137614,-18.32626924,1.619003366
-1.74915829,-19.43672024,-6.875865457,10.34735896,7.31559745,1.873448554,6.56018619,9.285408411,17.46380997,20.86456178,18.71005778,16.6601996,9.523552058,3.636847574,1.354237371,-21.46533108,-8.043508071,-24.3706938,0.572806653
-3.395441845,-23.40960461,-10.93249933,8.304109998,7.495341197,2.190106623,6.451620611,8.747538298,17.95594554,19.67825386,19.80301608,17.14014305,10.2641071,3.430026975,1.378808495,-21.19053479,-9.315193015,-26.94785827,0.425138507
-4.54996877,-24.18268445,-13.98018931,4.139720322,6.827338637,2.116558543,4.837231205,6.275421533,15.36013329,15.43840536,18.15877571,15.97327786,9.13430349,3.428994867,1.368376943,-17.91445767,-8.870283616,-25.26648456,0.804889788
-5.022395255,-22.12316286,-15.39327299,-0.753381737,5.814106484,1.984438517,3.008823448,3.24701002,11.59894695,10.02200739,15.55887672,13.89930124,7.088438151,3.321670295,1.305824879,-12.86242177,-7.346710024,-20.11211736,1.218897743
-4.79600447,-18.29292031,-14.9726725,-4.705544181,5.043146657,1.951832017,2.136172154,1.056087447,8.998321186,5.49762313,13.89820938,11.72256606,5.282852412,2.807464318,1.170895388,-7.829400305,-5.699403691,-13.47647513,1.361128487
-4.024183437,-13.88687942,-13.07376349,-6.761043549,4.779616792,1.917288109,2.463322386,0.263797718,8.809770206,2.943727845,14.04757373,9.95659206,4.346313912,1.827303186,0.974000908,-4.243813991,-4.584832577,-7.498175197,1.22200605
-2.944767897,-9.74532623,-10.41903631,-7.110175269,4.833878314,1.632114638,3.209426346,0.372055086,10.5379699,2.052755774,15.54963857,8.706839175,4.103012064,0.610913247,0.756103594,-2.519234654,-4.03761093,-3.411356208,0.984964301
-1.769976237,-6.184535805,-7.697934008,-6.685850359,4.805513174,0.938726925,3.267921469,0.377638298,12.55596247,1.733801052,17.27189049,7.824784166,3.940724257,-0.454713314,0.569670907,-2.092427968,-3.624274085,-1.167661332,0.844352171
-0.617497384,-3.150574364,-5.223803611,-6.302890685,4.4895922,-0.038840896,2.160596598,-0.345745422,13.47586135,1.164226412,18.39343264,7.177174105,3.492163995,-1.0198199,0.461484952,-2.035686106,-2.902813883,0.111141817,0.885586061
0.479339254,-0.51153806,-2.894777601,-6.053507147,4.086942331,-0.908939133,0.48484699,-1.544779119,13.16880238,0.435031821,18.90816568,6.804259074,3.039328154,-0.907406712,0.457578444,-1.739082066,-1.81512844,1.279604638,1.067061876
1.493348246,1.727411993,-0.485906424,-5.418696182,4.022869858,-1.245357952,-0.509689875,-2.349224216,12.66726165,0.321022709,19.32248608,6.84930144,3.288135323,-0.140770725,0.541670358,-1.177999615,-0.726997047,2.568163383,1.252136043
2.315161656,3.395007478,1.961189202,-3.934867553,4.521202911,-0.882548481,0.121740649,-2.05041498,13.13575214,1.449759349,19.95498008,7.34557848,4.705520458,1.109886984,0.638851189,-0.665066507,-0.117794545,3.611353458,1.239960171
2.728707059,4.277543576,3.979003411,-1.794791143,5.310314305,-0.050603974,2.294109037,-0.727335526,14.84626857,3.621533602,20.56199275,8.077270024,7.001779493,2.606898223,0.637448911,-0.400955912,-0.183550189,3.953582972,0.807413899
2.49015365,4.278335782,4.90613618,0.154501899,5.746314008,0.766194562,4.968291215,0.799432691,17.01663485,5.860987522,20.65013462,8.670738261,9.233378502,4.111000257,0.462016032,-0.253048627,-0.665283984,3.534738651,-0.195241636
1.476966506,3.500582718,4.356827182,1.012008974,5.289095063,1.155030879,6.938047164,1.622665638,18.56560839,7.129668797,20.14323425,8.865665015,10.47443944,5.418158933,0.150936264,0.059850809,-1.032378691,2.744884251,-1.708276606
-0.190887966,2.2066081,2.559810207,0.491982661,3.952250362,1.043521151,7.671693022,1.435576745,19.03710954,7.067907903,19.69584731,8.737947494,10.50633421,6.365639299,-0.146838137,0.577674288,-0.885067743,2.047486928,-3.388100369
-2.156737079,0.685845716,0.271875708,-0.91964172,2.344321609,0.708381582,7.543322852,0.670061957,18.85133948,6.13968524,20.24961587,8.661291816,9.940749715,6.816720522,-0.297530424,0.887554199,-0.283180039,1.542439671,-4.708522342
-3.981015973,-0.88145786,-1.703527234,-2.444827824,1.243966868,0.523049982,7.329239542,0.004644874,18.71000893,5.101184203,22.15037284,9.004667518,9.664438077,6.650443735,-0.357187726,0.318091975,0.238230344,0.870020789,-5.237128369
-5.354904534,-2.472639773,-3.036582076,-3.689894886,1.039068494,0.651603748,7.46248169,-0.281586572,18.78630819,4.309076525,24.62145566,9.796054428,10.07335198,5.790864529,-0.634265146,-1.582003867,-0.010607014,-0.45691683,-4.924111947
-6.229912582,-4.142734473,-4.018982934,-4.909930745,1.48051203,0.937112938,7.706290327,-0.510418091,18.52527032,3.503154478,26.15593155,10.63390615,10.74716268,4.284172074,-1.525179988,-4.648119109,-1.422388799,-2.579622603,-4.180631373
-6.771047702,-5.864236987,-5.208752252,-6.625833386,1.945947615,1.068123855,7.498795931,-1.182259927,17.2861953,2.242948042,25.61174278,10.93880803,10.83624226,2.374872971,-3.187841521,-8.099392836,-3.804482481,-5.083305022,-3.647652464
-7.170514369,-7.406341056,-6.84737881,-8.947436869,1.986893285,0.872291629,6.609273283,-2.336134582,15.22339055,0.562517204,23.14197424,10.35913319,9.816048688,0.492336378,-5.296200661,-10.94616521,-6.446481889,-7.227814647,-3.788036123
-7.467454805,-8.368912876,-8.527284359,-11.23836563,1.698806838,0.479643492,5.472474652,-3.319906631,13.50682926,-0.812123408,20.16211368,9.012612989,7.946752342,-0.906904312,-7.122157399,-12.51803331,-8.508844197,-8.430563542,-4.588207918
-7.516291552,-8.38795262,-9.407317843,-12.47547029,1.60663177,0.212301472,4.867871861,-3.247038093,13.5341662,-0.956051383,18.32645706,7.378967868,6.04043249,-1.586121651,-7.969466379,-12.75632769,-9.491009365,-8.617493342,-5.591664792
-7.127567482,-7.393809819,-8.838707697,-12.04364872,2.16915173,0.296719823,5.213427489,-1.790620962,15.7145719,0.432646667,18.31550154,5.948308462,4.755512241,-1.703118209,-7.685583896,-12.11066085,-9.482959152,-8.18514016,-6.240796703
-6.263641436,-5.734736759,-6.918795327,-10.29672783,3.326887041,0.652559992,6.111739836,0.379800157,18.87902072,2.60901784,19.40997137,4.927993302,4.062837392,-1.752400781,-6.851529449,-11.16920758,-9.040699159,-7.64289828,-6.268792949
-5.123953868,-4.046982913,-4.521364147,-8.374646465,4.479758499,0.950031781,6.589676996,1.955885166,20.93056466,4.19435106,20.18123567,4.244348437,3.376588798,-2.257525406,-6.440333915,-10.31224199,-8.770830482,-7.248454826,-5.851188324
-4.043096914,-2.926343336,-2.749413385,-7.377720151,4.918147038,0.895301887,5.875883916,1.92008418,20.32990735,4.168039988,19.70346208,3.802258654,2.239872134,-3.392560353,-7.132628702,-9.607807902,-8.904425912,-6.917347572,-5.423278004
-3.278439463,-2.609255914,-2.209168868,-7.5486695,4.353282233,0.50111489,4.07996439,0.320926699,17.27702138,2.662942476,18.27487713,3.727231662,0.931964105,-4.803619617,-8.779235633,-8.95287773,-9.152123894,-6.430010581,-5.331474511
-2.85531895,-2.879314246,-2.650191641,-8.130967036,3.116929518,0.104357167,2.191895547,-1.740873784,13.6399736,0.90387143,17.07499019,4.327527081,0.398428874,-5.791504966,-10.44213399,-8.28565061,-8.943853292,-5.711968303,-5.598606331
-2.590619784,-3.259690675,-3.234749374,-8.03001819,1.882674282,0.103789265,1.37104042,-2.925684066,11.65970946,0.300154334,17.09614954,5.775042624,1.490128322,-5.76291787,-11.03387055,-7.681679587,-7.889305578,-4.932870656,-5.962058302
-2.269867031,-3.347588237,-3.212720975,-6.746079242,1.155996863,0.629917794,2.078946113,-2.634332511,12.41958181,1.384880425,18.28693956,7.785522978,4.133169091,-4.646611569,-10.11065349,-7.279788993,-6.133860974,-4.362093619,-6.10624021
-1.830864895,-3.052381381,-2.473634158,-4.820101232,0.955209744,1.42023262,3.740662237,-1.390685681,15.22487586,3.424765292,19.62931069,9.624594795,7.173473442,-2.973865825,-8.225008269,-7.134712512,-4.348743908,-4.143942477,-5.866848193
-1.408413322,-2.587361685,-1.563296333,-3.425989641,0.923815893,2.00417519,5.193006659,-0.350588381,18.28510307,4.997369839,20.04879649,10.51703619,9.11212369,-1.553125058,-6.550195116,-7.139900271,-3.346514671,-4.210716018,-5.250251327
-1.213668801,-2.260176941,-1.186747738,-3.432711313,0.744492677,2.04786693,5.55506394,-0.354330859,20.0758288,5.076896765,19.35097792,10.19113489,9.198931952,-0.960036437,-6.033334753,-7.085469665,-3.577813477,-4.400473406,-4.310486219
-1.354700901,-2.248203473,-1.617523371,-4.683518872,0.483507573,1.584386412,4.845360796,-1.274836817,20.3065343,3.792677532,18.38797933,9.140706653,8.016593741,-1.196265422,-6.700311994,-6.795558807,-4.851886816,-4.64240695,-3.063917411
-1.742327507,-2.523301059,-2.481145141,-6.059382981,0.575454502,0.961125636,3.9039632,-2.138111302,19.85076833,2.310437359,18.34789148,8.372053795,7.065046935,-1.743680339,-7.633084142,-6.23147349,-6.467593648,-5.011964124,-1.565826254
-2.144856105,-2.940062451,-3.05727582,-6.268855688,1.474511706,0.572461588,3.735676358,-1.86344154,19.87485032,1.979374929,19.80503999,8.783847417,7.646304746,-1.954523729,-7.640368284,-5.491031589,-7.656166952,-5.595321335,-0.078564741
-2.334354192,-3.364894991,-2.828495391,-4.749420808,3.271495934,0.607359631,4.807898072,-0.015708692,20.97133484,3.422489869,22.32615451,10.6031519,9.904893572,-1.490573237,-6.127292664,-4.729545091,-8.029154034,-6.303849749,0.879717405
-2.208840383,-3.719308844,-1.832991247,-2.013044335,5.58292557,0.996923759,6.801269363,2.97290048,22.93854099,6.220264123,24.89460584,13.25509861,12.74501757,-0.517130574,-3.531227934,-4.085914272,-7.740830418,-6.846804006,0.750768128
-1.817345151,-3.928820568,-0.57325461,0.766791939,7.776038328,1.552227971,8.904283754,6.176634036,25.18803068,9.320789394,26.69815967,15.72205387,14.64347383,0.443874622,-1.026710315,-3.671493833,-7.29123521,-6.931001581,-0.675286955
-1.304687966,-3.882382263,0.392776166,2.547911263,9.326314309,2.122554142,10.33401872,8.753480838,27.24285934,11.756377,27.56627583,17.11057634,14.69123158,0.859223901,0.256187979,-3.601207073,-7.145299876,-6.532627996,-2.992247501
-0.843295583,-3.497049557,0.818105522,2.979819347,10.03499192,2.620378889,10.67705641,10.26712775,28.846711,13.09543843,27.74095801,17.04590154,13.07641835,0.482459135,-0.076740561,-3.993727278,-7.444609034,-5.989047174,-5.293973462
-0.593939799,-2.854319565,0.817507592,2.383025412,9.994987504,2.923551835,9.891514893,10.61515312,29.70505432,13.37766339,27.31869137,15.69994083,10.72867514,-0.560439624,-1.547638608,-4.894099084,-7.984372417,-5.791752539,-6.666334173
-0.67889167,-2.25833434,0.633728206,1.297071152,9.41543108,2.809246362,8.125198344,9.798629152,29.29300454,12.74877927,25.99307445,13.54807669,8.524205241,-1.89290695,-3.250255755,-6.158662692,-8.418790534,-6.220387286,-6.740908731
-1.131938435,-2.094093409,0.390015862,0.052991087,8.496156898,2.051606025,5.602784741,7.853054202,27.08403322,11.22012723,23.39695235,11.10338032,6.737105163,-3.093082353,-4.484917057,-7.410406135,-8.508779878,-7.113945661,-5.911292114
-1.833981973,-2.536666803,0.070084899,-1.286969601,7.433428018,0.640776393,2.668742202,5.013208147,23.07555802,8.782112985,19.715983,8.800327269,5.119225475,-3.857045541,-5.114762671,-8.151768924,-8.235757664,-7.980018641,-5.038432871
-2.49950814,-3.332871738,-0.287015299,-2.666259748,6.469817564,-1.077333513,-0.154226666,1.877227005,18.10146807,5.715056482,15.92607112,7.005145212,3.41018894,-4.069609712,-5.447592883,-8.011469269,-7.739032985,-8.365764606,-4.845866912
-2.774064128,-3.874984326,-0.42002967,-3.788840476,5.85155472,-2.518609629,-2.277782199,-0.716168499,13.53122634,2.728317603,13.31183458,6.012289207,1.74102388,-3.797326783,-5.828445447,-6.981758281,-7.169629535,-8.190484594,-5.438877804
-2.419333758,-3.579312752,0.063495819,-4.186903082,5.673669518,-3.206691492,-3.337490424,-2.11894423,10.48663275,0.704163656,12.5860212,5.9437569,0.565599712,-3.230273582,-6.312510825,-5.473653795,-6.588541335,-7.767107339,-6.288165569
-1.468613214,-2.323911687,1.35813805,-3.572348932,5.752102521,-3.100840276,-3.442250552,-2.304482235,9.173304552,0.186054475,13.34223617,6.62145304,0.234153578,-2.58580821,-6.660867371,-4.120338101,-5.968333611,-7.502034309,-6.669102984
-0.226336834,-0.609980357,3.170915132,-2.14995471,5.689343247,-2.633029756,-3.133877048,-1.915115467,8.878497172,1.005051844,14.34171123,7.565867311,0.654717229,-1.996713696,-6.604205644,-3.431385252,-5.262282898,-7.536850541,-6.212872365
0.910595857,0.711198621,4.768241605,-0.576972317,5.146817658,-2.392797713,-3.020252798,-1.821641241,8.645549441,2.360122488,14.4438324,8.195292912,1.378516372,-1.440045641,-6.109686046,-3.517254647,-4.466118326,-7.643150263,-5.160485851
1.690725412,0.980627845,5.398831233,0.446176879,4.133811434,-2.683928364,-3.32623693,-2.491948805,8.069140863,3.324136775,13.44250106,8.127237894,2.021105857,-0.771175783,-5.419492142,-4.068780125,-3.629615312,-7.458667329,-4.154042241
2.129610182,0.161757044,4.806077043,0.643839087,3.064021718,-3.29628999,-3.703719013,-3.643012574,7.565299775,3.422763922,12.1479986,7.378769578,2.603333706,0.13185286,-4.848758428,-4.603472901,-2.830077966,-6.851201812,-3.751891063
2.425935248,-1.153221903,3.432623192,0.317270252,2.493260942,-3.677874572,-3.459353263,-4.442086569,7.932089148,2.88571426,11.68795205,6.326878852,3.473391854,1.206610534,-4.534868873,-4.801084733,-2.142032418,-6.080669574,-4.043062481
2.747918452,-2.162645385,2.134450329,0.060453585,2.712854576,-3.37647055,-2.041211216,-4.098506786,9.61741533,2.421682066,12.63669555,5.471347373,4.876659761,2.16720591,-4.354131644,-4.68794633,-1.618658273,-5.604108451,-4.630972589
3.071017044,-2.390960749,1.598667299,0.273368189,3.510858392,-2.404117342,0.566389228,-2.397634994,12.32379696,2.708367871,14.67628899,5.183789633,6.589542764,2.656798812,-4.0646532,-4.545939617,-1.276706249,-5.684587339,-4.960332546
3.201307757,-1.95923581,1.893520315,0.86250725,4.299770473,-1.239479307,3.807677854,0.198065776,15.24074961,3.959092058,16.99008725,5.608783235,7.993684094,2.505943607,-3.542192331,-4.633044009,-1.081142577,-6.146191824,-4.714408583
2.958250216,-1.423850845,2.478410757,1.352401756,4.527817963,-0.473546288,6.871125061,2.900114841,17.63428617,5.827296328,18.95788745,6.731491174,8.564480505,1.898295491,-2.908494772,-4.946043093,-0.949704814,-6.500577453,-3.99266454
2.354110199,-1.340706076,2.646400991,1.292976517,4.068430194,-0.384924371,9.107383246,5.084471011,19.25037142,7.651730386,20.5170763,8.482929488,8.347887291,1.286854268,-2.452285826,-5.218132943,-0.801276639,-6.351650066,-3.178321649
1.613281356,-1.892945341,2.047401905,0.621220618,3.299374729,-0.775582401,10.27489544,6.5597421,20.22662318,8.835116056,21.92631257,10.7465474,7.974322652,1.089512747,-2.41621467,-5.152416469,-0.634134097,-5.738773633,-2.644197047
1.016191589,-2.83317682,0.901022136,-0.301363192,2.822125544,-1.177406547,10.51212742,7.486699158,20.69820044,9.117983881,23.244228,13.25699485,8.147455644,1.379942911,-2.824709864,-4.698673329,-0.570676284,-5.122254605,-2.536715564
0.703156412,-3.729809569,-0.228909295,-0.974516499,3.038065721,-1.242199943,10.13894403,8.109374489,20.5530983,8.631361364,24.07913029,15.51931962,9.013760498,1.816983132,-3.4839157,-4.142299561,-0.802650657,-5.015888946,-2.772962597
0.600792187,-4.290244984,-0.884990592,-1.116327426,3.884716916,-0.996130438,9.462139726,8.554009946,19.59509326,7.762488125,23.87067131,16.89217537,9.951165965,1.883808536,-4.141821933,-3.924431638,-1.440570305,-5.573618244,-3.195028078
0.517383693,-4.519924899,-1.032018313,-0.818286436,4.892232998,-0.771088626,8.682124317,8.814771899,17.921291,6.943455622,22.43065488,16.85142679,9.985103122,1.26645618,-4.672731116,-4.330280259,-2.366785707,-6.479520368,-3.713934104
0.303414119,-4.644574292,-1.023120165,-0.424215071,5.481038699,-0.898045931,7.881076825,8.843100098,16.07124542,6.462021426,20.20949119,15.28864331,8.52304144,0.086574475,-5.138706867,-5.289964435,-3.225214743,-7.232884493,-4.321475206
-0.072871586,-4.911820548,-1.295559732,-0.286710684,5.276388366,-1.431659477,7.033960263,8.591000851,14.71293923,6.351058862,18.01000917,12.64175361,5.832661283,-1.185554932,-5.682947563,-6.443581689,-3.601090579,-7.58178233,-4.991767995
-0.588520378,-5.445783716,-2.069130635,-0.615427934,4.253562104,-2.127816011,6.03238847,7.96827192,14.10409855,6.383845106,16.3941226,9.752926873,2.896400868,-2.061665824,-6.343476999,-7.406487821,-3.295738322,-7.729906124,-5.59956685
-1.277593203,-6.23560734,-3.270732542,-1.496543418,2.68022041,-2.671591525,4.758906879,6.81713815,13.84091551,6.18274449,15.32190203,7.524210187,0.775059989,-2.348401041,-6.940444911,-8.012164567,-2.501165426,-8.134886768,-5.95942361
-2.25137175,-7.206185872,-4.68807004,-2.981178592,0.948695099,-2.947519202,3.217531423,5.015370853,13.18950737,5.411131204,14.34772504,6.560810142,-0.01568599,-2.209751548,-7.141102062,-8.341396008,-1.722325222,-9.068166582,-5.966784227
-3.581796759,-8.270267624,-6.168611211,-5.090287681,-0.591790435,-3.123310977,1.639073846,2.670739413,11.76172421,3.963805164,13.1754276,6.977033409,0.333466772,-1.959256863,-6.678793878,-8.539055924,-1.467560366,-10.31609145,-5.714033583
-5.153715377,-9.321278073,-7.679540835,-7.704302275,-1.751562366,-3.485882696,0.441693991,0.219692252,9.939245661,2.044609567,12.03557712,8.422839966,1.268037284,-1.777857263,-5.584506121,-8.60600944,-1.905931561,-11.28846085,-5.460358185
-6.648607367,-10.21383172,-9.205407148,-10.46681826,-2.55938447,-4.175160086,0.011247203,-1.733115331,8.625588516,0.067115486,11.51439862,10.26946595,2.358913563,-1.594811894,-4.263115188,-8.37012216,-2.732988899,-11.45825452,-5.452807277
-7.718056596,-10.7964364,-10.61915185,-12.86025794,-3.248048414,-5.037412292,0.423731008,-2.785783136,8.490074592,-1.575320781,11.9840358,11.84710026,3.519995193,-1.212471082,-3.334010837,-7.670983669,-3.350878134,-10.77366925,-5.727981733
-8.224955731,-10.99328817,-11.67472567,-14.46246343,-4.132045246,-5.714664731,1.322811684,-3.050514184,9.346265214,-2.725004258,13.17234352,12.65445529,4.832747112,-0.543595285,-3.305747045,-6.586543145,-3.249112302,-9.699929443,-6.056294306
-8.342477672,-10.85743178,-12.1379788,-15.19950184,-5.383781157,-5.897125679,2.085311789,-3.120976888,10.23408292,-3.511421342,14.29940222,12.50257451,6.223336294,0.25666246,-4.271797334,-5.473452672,-2.330849718,-8.850975571,-6.090763366
-8.401639963,-10.52404965,-11.93301597,-15.36452724,-6.814675964,-5.54531746,2.197830936,-3.653277164,10.18591302,-4.196740108,14.69176024,11.56918263,7.350118263,0.878690698,-5.819408673,-4.746616303,-0.970089497,-8.508017677,-5.624782942
-8.594713295,-10.08539435,-11.16867603,-15.34531313,-7.833510551,-4.922133849,1.59366394,-4.835017679,9.055991452,-4.920460186,14.33758632,10.33533112,7.835303837,1.087376265,-7.224328679,-4.561004074,0.225393025,-8.414405371,-4.771760939
-8.78504595,-9.499502465,-10.03112409,-15.26138586,-7.687380396,-4.421046127,0.710992041,-6.142333541,7.710818506,-5.526949221,13.88319729,9.395724352,7.634147097,0.898180462,-7.83049718,-4.670574353,0.773674304,-8.010787454,-3.928135852
-8.605056618,-8.635475225,-8.660324733,-14.82466339,-5.897843327,-4.316659508,0.23103282,-6.597551723,7.400728345,-5.608863633,14.06705333,9.196206961,7.189177331,0.559908504,-7.396035091,-4.613799026,0.563724582,-6.91942172,-3.536243201
-7.785335902,-7.440700064,-7.138062456,-13.58073906,-2.624467184,-4.601729365,0.682309949,-5.375855141,8.814480024,-4.753925528,15.09177313,9.818979068,7.19212312,0.367460488,-6.203841723,-4.104025127,-0.151005269,-5.29094446,-3.808736193
-6.447719923,-6.089438866,-5.590990411,-11.3686848,1.315828799,-5.002080428,2.174157523,-2.352392797,11.57438104,-2.844020846,16.48689174,10.94314273,8.112483693,0.457651414,-4.878301486,-3.311641072,-0.967466391,-3.742370763,-4.602826583
-5.101704305,-4.959207602,-4.276288066,-8.620707293,4.832684844,-5.144338827,4.398467789,1.770739749,14.54674978,-0.216490012,17.56624874,12.02471584,9.855256616,0.736692364,-4.02608837,-2.785684497,-1.586039955,-2.938319925,-5.522036692
-4.31614723,-4.410847671,-3.511359569,-6.211190034,7.121698384,-4.769732772,6.831263834,5.814076155,16.66406786,2.422036885,18.04410366,12.60765879,11.81182103,0.971288369,-3.914999687,-3.041892661,-1.935281038,-3.135646065,-6.160693397
-4.309886744,-4.520798688,-3.454492939,-4.913117302,8.033562146,-3.877344269,8.95121421,8.687832989,17.56868409,4.295528336,18.23710274,12.58494541,13.25955687,0.956044987,-4.364516336,-4.121724869,-2.114889569,-4.021111495,-6.31449502
-4.785938821,-4.98057249,-3.912269605,-4.85574162,8.018067967,-2.729198135,10.34884971,9.822002769,17.60629721,4.918798261,18.66988373,12.24662072,13.80739438,0.639548043,-4.883468069,-5.47258352,-2.233394414,-4.935012129,-6.024318449
-5.148693311,-5.269220602,-4.375196197,-5.416323402,7.715382603,-1.721627588,10.74660408,9.264853325,17.29409496,4.33027726,19.46142689,12.07713973,13.5763437,0.149995585,-4.95136833,-6.26570726,-2.276159982,-5.292149736,-5.458831838
-4.939780055,-4.996502837,-4.317266521,-5.665913171,7.512531612,-1.190252574,10.03159981,7.504377758,16.81800876,3.070422463,20.08293204,12.42079356,13.02829814,-0.263555238,-4.283326285,-5.934325741,-2.100586325,-4.900119725,-4.761401763
-4.155935605,-4.173078135,-3.565385737,-5.05898597,7.37662977,-1.247769338,8.343642603,5.202192747,16.00909394,1.902209617,19.74707559,13.22342474,12.61433938,-0.329430687,-2.957697837,-4.544166396,-1.557618244,-3.992891637,-3.994276422
-3.212775643,-3.207576175,-2.452382964,-3.852565889,7.03362817,-1.740033734,6.133247849,2.983117491,14.74292059,1.401018133,18.11139177,14.0232528,12.50710422,0.139039967,-1.371960597,-2.735535666,-0.649804401,-3.021922725,-3.208443215
-2.605542978,-2.62993784,-1.610931147,-2.934830224,6.288926254,-2.34515751,4.057679149,1.298144986,13.28996792,1.621261247,15.67872067,14.21954158,12.57012484,1.146009965,-0.066391764,-1.297956327,0.390989765,-2.393367931,-2.544291746
-2.551816253,-2.741260027,-1.543085309,-3.190361302,5.205933402,-2.757335762,2.691778903,0.321037975,12.20840544,2.031000173,13.52749662,13.47435798,12.52397211,2.464256127,0.507147988,-0.700323669,1.17555598,-2.317145715,-2.234762789
-2.892410083,-3.437212174,-2.284874763,-4.877219477,4.020960634,-2.841771694,2.21231252,-0.108360347,11.84259989,1.783508095,12.58018698,12.00048205,12.153661,3.690015467,0.181881613,-0.902892875,1.354129945,-2.800163628,-2.470778525
-3.294344954,-4.313353219,-3.416908521,-7.465975556,2.920239506,-2.664233353,2.296420737,-0.412343061,11.9139771,0.211957961,13.00631372,10.52774159,11.42531401,4.418433449,-0.8480839,-1.535440181,0.826303151,-3.705625345,-3.22409252
-3.549129872,-4.950359761,-4.398161408,-10.02049043,1.915421291,-2.387032533,2.353138047,-1.028905373,11.65198262,-2.714308242,14.22076515,9.917885442,10.48069793,4.463766536,-2.127126078,-2.244165739,-0.172007696,-4.796919942,-4.185190941
-3.702066353,-5.159146932,-4.944699892,-11.78967617,0.936958653,-2.12244702,1.955889036,-2.090775264,10.42998227,-6.247481847,15.41665409,10.62577951,9.555056177,3.976287661,-3.188788751,-2.91185118,-1.177315425,-5.759767263,-4.900223196
-3.921131053,-5.022586877,-5.151535987,-12.55762498,0.037392931,-1.865471916,1.166111192,-3.255101606,8.382216256,-9.155504271,16.13980181,12.34142186,8.873440164,3.343995869,-3.83205077,-3.602653854,-1.753043619,-6.254885436,-5.033390573
-4.255038142,-4.743395625,-5.284231062,-12.54726172,-0.52525179,-1.558355005,0.494664198,-3.863592514,6.441378961,-10.3269961,16.4420548,14.08079292,8.556804032,2.916527745,-4.244653492,-4.334355057,-1.733971811,-6.032240405,-4.569416687
-4.524871952,-4.45278973,-5.452840151,-12.06127575,-0.451268343,-1.221002971,0.512922745,-3.385804117,5.707765806,-9.363949741,16.58133468,14.72861371,8.560998611,2.742889737,-4.861831168,-4.921763275,-1.296545204,-5.062364773,-3.8039987
-4.463408847,-4.141747055,-5.478285896,-11.23548573,0.30188898,-1.014207356,1.397266431,-1.854334331,6.635506612,-6.823356531,16.64630458,13.72338445,8.682514579,2.533425549,-6.024971376,-5.055774517,-0.802077762,-3.59188759,-3.129599981
-3.982444584,-3.753899555,-5.083832009,-10.11861384,1.356111837,-1.15190948,2.751861577,0.047044308,8.69338165,-3.956535102,16.49554351,11.43418936,8.654245492,1.897243617,-7.673926501,-4.562679794,-0.522699595,-2.064053233,-2.781956978
-3.321546265,-3.336013986,-4.243036511,-8.938870681,2.076822211,-1.712097386,3.851378986,1.359923608,10.77173832,-2.078011779,16.03193269,8.943686063,8.29918187,0.682369941,-9.321685961,-3.619628786,-0.453831883,-0.936455539,-2.737242312
-2.924852944,-3.09561299,-3.353531923,-8.205100345,1.992457798,-2.50222524,4.132647791,1.467975297,11.9954842,-1.903891614,15.46433957,7.346658488,7.646744596,-0.855070932,-10.37185347,-2.725272058,-0.359175825,-0.499386137,-2.818282181
-3.12469793,-3.296920114,-3.033271186,-8.427835381,1.16423903,-3.115643453,3.581409005,0.529269176,12.28930794,-3.210796662,15.21275755,7.032047437,6.915310023,-2.20366683,-10.56712577,-2.416492288,-0.015316884,-0.790714763,-2.891332091
-3.880449721,-4.063758847,-3.656180796,-9.62487011,0.203954099,-3.173031515,2.74119262,-0.592599268,12.27917369,-4.982650109,15.49037564,7.460877067,6.352564601,-2.962832884,-10.21792774,-2.923789289,0.542121692,-1.629455608,-2.965440487
-4.782811397,-5.239674175,-4.989733493,-11.05405342,-0.111247395,-2.58741662,2.345408806,-0.869937605,12.67664721,-5.949747271,15.971586,7.615036709,6.043203031,-3.130484515,-9.994959541,-4.009765322,0.982258717,-2.716547671,-3.106547398
-5.322276325,-6.419572516,-6.252177412,-11.51361199,0.628845785,-1.653230855,2.831797705,0.231991068,13.68845598,-5.231626184,15.93853889,6.797463975,5.836952474,-3.075375558,-10.40403276,-5.103453079,0.901932852,-3.734501215,-3.260989061
-5.215087281,-7.145052533,-6.593296606,-10.10949392,2.164470816,-0.878974751,4.059817727,2.41101391,14.90622413,-2.764712383,14.86988376,5.184619777,5.466347119,-3.213688645,-11.33993807,-5.636695437,0.141965081,-4.415679549,-3.182680568
-4.548388187,-7.141161914,-5.666516479,-6.961736648,3.707680769,-0.671152858,5.394240846,4.700579451,15.68182436,0.676998453,12.98239948,3.700811037,4.771174831,-3.655635721,-12.09663182,-5.36266009,-1.059538883,-4.592017417,-2.576415699
-3.663393106,-6.447262566,-3.873947246,-3.283770024,4.42821119,-1.087360665,6.074892766,6.01806755,15.60380982,3.855005352,11.20308184,3.294844686,3.85247138,-4.114119173,-11.87691791,-4.47055352,-2.213790653,-4.242407624,-1.368164125
-2.899973349,-5.37028061,-2.103176985,-0.694974892,3.951044238,-1.823335072,5.633562078,5.732717,14.68687064,5.639286242,10.51064957,4.166598763,3.028812727,-4.148987962,-10.44281957,-3.45918219,-2.924107416,-3.521761719,0.131066777
-2.409048811,-4.30448079,-1.149725729,-0.206076844,2.549177621,-2.427446767,4.127888276,3.93733111,13.21824568,5.507465994,11.15253196,5.54319819,2.624646505,-3.541808732,-8.403856237,-2.876532495,-3.156175557,-2.731888626,1.347835807
-2.147742774,-3.536239145,-1.239195527,-1.589726101,0.945143127,-2.581906805,2.096968467,1.334099289,11.52264067,3.744471525,12.40114113,6.187709778,2.75324474,-2.493527181,-6.890906729,-3.080185436,-3.220307638,-2.21489538,1.809929939
-2.004419379,-3.141497882,-1.96514662,-3.582848216,-0.107149835,-2.265735897,0.297288157,-1.127556302,9.910763397,1.267183593,13.09087167,5.258609938,3.254379796,-1.493999745,-6.827800172,-4.119134645,-3.484096305,-2.204566113,1.490365927
-1.907978033,-3.007846525,-2.63513812,-4.757752243,-0.184564827,-1.722299876,-0.634180194,-2.637708042,8.797958118,-0.818939312,12.52088105,2.8723843,3.81600648,-0.987487598,-8.326712692,-5.747535015,-4.055265127,-2.712457849,0.855111053
-1.827340342,-2.933955556,-2.731176485,-4.418456065,0.682203667,-1.294254591,-0.438889298,-2.778070839,8.733469567,-1.699128605,10.9876021,-0.034822661,4.166870132,-1.113450757,-10.64281998,-7.524888896,-4.695829615,-3.514078199,0.55226948
-1.696905054,-2.730188297,-2.156147511,-2.897988652,2.123792555,-1.25205275,0.680957692,-1.596830635,10.14314358,-1.131561754,9.513639091,-2.398229947,4.192826796,-1.711511799,-12.69781998,-8.954452209,-5.030336143,-4.242890569,0.960613499
-1.381514119,-2.274124396,-1.152184894,-1.120805262,3.655953024,-1.700649485,2.179828636,0.464082715,12.91457332,0.575251964,9.01179386,-3.707573491,3.920217012,-2.536935375,-13.76129882,-9.631274675,-4.862237433,-4.540908721,1.932215491
-0.749017431,-1.526470039,-0.040611252,0.150116361,4.877124957,-2.565857744,3.430479534,2.747859039,16.2138087,2.822249091,9.586330585,-4.175857849,3.429833271,-3.461142169,-13.79524329,-9.375386405,-4.327391118,-4.19531357,2.916555628
0.200167664,-0.538348584,0.970715035,0.778535748,5.579940406,-3.620319603,4.011168333,4.626800589,18.82106822,5.032723315,10.53404379,-4.342377217,2.802910386,-4.478824653,-13.27030469,-8.309390951,-3.764136809,-3.213246741,3.35853839
1.270373256,0.538191862,1.790816768,1.136117579,5.78236945,-4.532506561,3.881462549,5.7425869,19.8495695,6.846274294,10.99849822,-4.520465972,2.132938636,-5.55155638,-12.68609888,-6.832394271,-3.430409988,-1.821146464,3.060534553
2.152939095,1.462638609,2.341689814,1.612294938,5.694464029,-4.959731305,3.359065194,6.138115204,19.33224167,8.138131401,10.68757296,-4.584017736,1.545853003,-6.483315993,-12.22085812,-5.473124958,-3.326007261,-0.393783032,2.250926985
2.606266533,1.978042856,2.517666071,2.240983492,5.619534333,-4.69440114,2.914106508,6.191523361,18.19096645,8.931070492,10.04849593,-4.242858737,1.157093299,-6.988350499,-11.76035178,-4.669504845,-3.269306585,0.674866249,1.355524718
2.596555678,1.938523499,2.280447324,2.760718585,5.798348719,-3.808221944,2.898653376,6.357601538,17.56144048,9.30445228,9.793632438,-3.504066659,0.973906358,-6.91199849,-11.19384825,-4.578446926,-3.133643641,1.129189988,0.702320751
2.290212162,1.422974462,1.786434688,2.988178962,6.253500992,-2.688175773,3.361534586,6.848278411,17.96554131,9.347056654,10.22803238,-2.855071207,0.839707819,-6.394915905,-10.64435074,-5.021569574,-2.995887077,0.975354348,0.407318041
1.910487229,0.737014361,1.371738826,3.088258598,6.73017298,-1.892088889,4.039708223,7.44773076,18.95914604,9.123829047,10.96433344,-2.967005771,0.512382835,-5.799855045,-10.40273677,-5.606205078,-3.035028756,0.490813159,0.487717501
1.578085918,0.257068207,1.335400985,3.433496888,6.800575361,-1.868976387,4.510430466,7.596011907,19.5104152,8.617834377,11.23689878,-4.158242028,-0.142711875,-5.430351521,-10.64265129,-5.960845285,-3.269410411,0.07911509,1.021458088
1.256436241,0.183491108,1.664544878,4.15630184,6.099925419,-2.703376851,4.407824078,6.714949893,18.78960867,7.676445335,10.5068043,-6.081524749,-0.984481988,-5.270796043,-11.20817731,-5.952115103,-3.404376909,0.023980485,2.13278173
0.823304106,0.362605073,1.944177109,4.82789835,4.560682599,-4.052373558,3.597848524,4.594122292,16.75319617,6.052359516,8.842670562,-7.909926929,-1.602852359,-4.978256725,-11.69201155,-5.755697735,-2.993436946,0.286232495,3.772599907
0.185886652,0.325319675,1.578985694,4.632753436,2.494078001,-5.325741773,2.250771555,1.606492199,14.1147723,3.59193623,6.813986209,-8.873193659,-1.527725676,-4.148740312,-11.73919863,-5.738764832,-1.835648812,0.490396244,5.505322806
-0.661047651,-0.44243622,0.204217741,2.982313842,0.459046163,-5.997021488,0.799132436,-1.386149998,11.8085363,0.485470598,5.0701964,-8.716094036,-0.509506374,-2.647068372,-11.29687715,-6.227022001,-0.283114783,0.137181014,6.573513896
-1.65928319,-2.152461008,-2.013343424,0.092518446,-1.003562545,-5.850682883,-0.207858302,-3.405956757,10.42061344,-2.626626518,3.992935208,-7.751143444,1.316500176,-0.738614192,-10.5904333,-7.302535562,0.848121882,-1.080139838,6.305167577
-2.733124718,-4.524562805,-4.425411363,-2.984587221,-1.610498803,-5.029171858,-0.328113454,-3.825602043,9.99863136,-4.861962351,3.643991145,-6.546082515,3.478688958,1.064744529,-9.879635332,-8.758632606,0.76956107,-3.063599545,4.614087946
-3.787939197,-6.901785479,-6.285067129,-4.975337584,-1.418116809,-3.890753227,0.535064314,-2.690630484,10.25950093,-5.573891389,3.904465122,-5.573920407,5.373138395,2.294765534,-9.263426072,-10.23367142,-0.723727251,-5.348122014,2.196759482
-4.666439039,-8.612013345,-7.188536195,-5.218205008,-0.7279753,-2.805532321,1.998294013,-0.725235603,10.88276137,-4.806727925,4.558470482,-5.106636813,6.481763017,2.717155223,-8.739986471,-11.42413766,-3.06115366,-7.360269019,0.203889135
-5.143515805,-9.339137537,-7.258009499,-4.086471192,0.097035987,-2.019993784,3.293718923,1.001314613,11.59509097,-3.37197862,5.240727701,-5.327861595,6.508197433,2.317594661,-8.442003646,-12.22510656,-5.239301139,-8.715135465,-0.449431194
-5.02739227,-9.254463552,-6.952111804,-2.671316447,0.792050974,-1.62939773,3.625832864,1.603866908,12.05942642,-2.40720402,5.425256873,-6.39893078,5.43835658,1.187062786,-8.742104938,-12.70509654,-6.459878552,-9.353923748,0.326283486
-4.328710651,-8.829949782,-6.676868187,-1.96784524,1.263001272,-1.606886543,2.643228541,0.852374524,11.84142439,-2.651876329,4.662272419,-8.29004249,3.574870887,-0.515397657,-10.00883531,-12.95379017,-6.594240558,-9.459053489,1.728233401
-3.355975473,-8.484172724,-6.507528664,-2.185918306,1.580944686,-1.825982324,0.741632322,-0.664979578,10.65847899,-3.922056043,2.996793767,-10.51081161,1.534470498,-2.475451878,-12.14571392,-12.94475795,-6.146475492,-9.254128091,2.581015742
-2.608078676,-8.324682558,-6.217270273,-2.692497183,1.934376078,-2.071458905,-1.047011938,-1.801749823,8.778374578,-5.173706856,1.198110887,-12.10121738,0.12066681,-4.160348058,-14.34059247,-12.5430745,-5.782403333,-8.863070731,2.090763736
-2.481083562,-8.160341623,-5.548325081,-2.585693866,2.555969317,-2.085171993,-1.58646199,-1.435531244,7.168278683,-5.150882436,0.454411414,-12.09571906,0.01568649,-4.968599478,-15.37392434,-11.65918799,-5.817765923,-8.318824416,0.324610491
-2.978145252,-7.73840038,-4.47420536,-1.419089941,3.616835624,-1.674086626,-0.299995268,0.916976761,7.100937638,-3.200476554,1.608149264,-10.22832107,1.39632316,-4.590010004,-14.38721229,-10.40622808,-6.055475363,-7.661508119,-1.882817466
-3.654976018,-6.990134256,-3.235417069,0.482182224,5.098579549,-0.832883716,2.455533729,4.786298462,9.362488201,0.288420266,4.478862728,-7.3074894,3.733246538,-3.314769411,-11.56011585,-9.087336836,-6.048858433,-6.988466133,-3.486719379
-3.885465212,-6.081431882,-2.141157945,2.309344064,6.704301771,0.216055844,5.568824747,8.92504707,13.60506073,4.099550508,7.873862434,-4.827142962,6.001453998,-1.970129133,-8.110224665,-7.970194958,-5.519988594,-6.383153422,-3.847827145
-3.289145276,-5.243678048,-1.327796355,3.375263862,7.897858569,1.12253933,7.808283891,11.89070836,18.37248292,6.887342996,10.38800595,-3.962414592,7.267445574,-1.41448814,-5.510023266,-7.006890542,-4.568491672,-5.791508681,-3.016092031
-2.015039491,-4.550827341,-0.685580025,3.54182479,8.113704065,1.597756716,8.503455585,12.72560244,21.86451613,7.883259735,11.41980577,-4.66618794,7.301519589,-1.904807826,-4.454385886,-5.756583006,-3.525404609,-4.993471892,-1.568610675
-0.65711591,-3.849230757,-0.003521711,3.178602493,7.066369302,1.561052877,7.840094978,11.37504037,22.95053348,7.187651022,11.57878318,-5.617792095,6.764875591,-2.835258287,-4.372333735,-3.65303107,-2.628441965,-3.748128895,-0.192227042
0.158282822,-2.906295611,0.810104782,2.77068113,4.986203964,1.138284108,6.614770954,8.646294131,21.7476902,5.553988458,12.10653085,-5.171636624,6.774736158,-3.119726074,-3.900431553,-0.487206892,-1.834255836,-2.026411642,0.684235161
0.219914661,-1.647237306,1.629658866,2.550108824,2.606502735,0.524629359,5.668218958,5.772602321,19.40153197,3.904761116,13.7504401,-2.654845638,8.103102707,-1.996617592,-1.989576191,3.244660163,-0.930990424,-0.135417064,1.016493119
-0.119688043,-0.268606528,2.213691985,2.437501696,0.854183752,-0.165192405,5.404744844,3.84067096,17.28473451,2.914269777,16.02227092,0.974669012,10.56887561,0.334413436,1.200535435,6.444187895,0.1754711,1.403356717,1.042063563
-0.21459068,0.876466596,2.403068833,2.265679321,0.383547168,-0.934285648,5.683224888,3.362443108,16.20435594,2.836538169,17.48884655,3.658227899,13.07612641,2.75175114,4.318991322,7.978530101,1.286960699,2.165129861,1.083974576
0.376633587,1.526276244,2.234411595,2.015070397,1.215766407,-1.812708426,6.056917312,4.145360253,16.11333604,3.533695388,16.88562591,3.601529263,14.28805072,3.934383586,5.744909076,7.36270249,2.023952964,2.094996631,1.38128243
1.530738817,1.678605473,1.874683591,1.825586784,2.711503722,-2.743251858,6.103113055,5.45202002,16.38725549,4.571758847,14.13634777,0.472395517,13.45690021,3.244097853,4.70120573,5.072992172,2.124390531,1.522685498,1.985212671
2.604895548,1.534408266,1.448723309,1.800240835,3.917524224,-3.568161184,5.593669175,6.340369005,16.33486272,5.330390559,10.422825,-4.441785225,10.8247885,1.113879995,1.719481232,2.239916245,1.655118647,0.892769585,2.71673182
2.85852546,1.269871862,0.924742363,1.830397193,4.101196728,-4.139344728,4.464901002,6.056569174,15.55302195,5.180697983,7.245594719,-9.182541917,7.351991123,-1.326931734,-1.848152814,-0.082612729,0.939386137,0.413917454,3.20215503
1.952035363,0.843381178,0.163698978,1.650106282,3.163876573,-4.446937068,2.738280449,4.364898028,13.98478095,3.767042745,5.272572338,-12.40699726,4.040836056,-3.070462141,-4.822060813,-1.550166272,0.264876449,-0.095139438,3.021090162
0.175992415,0.018415436,-0.91310172,1.097485128,1.688484466,-4.631546001,0.545832338,1.702504406,11.81491777,1.284432688,3.948695772,-14.04784465,1.39418793,-3.851413594,-6.892104,-2.604589721,-0.360433405,-1.035187085,1.946470671
