Channel 1 - P4,Channel 2 - O2,Channel 3 - P8,Channel 4 - T8,Channel 5 - C4,Channel 6 - Cz,Channel 7 - Fz,Channel 8 - F4,Channel 9 - Fp2,Channel 10 - F8,Channel 11 - Fp1,Channel 12 - F7,Channel 13 - F3,Channel 14 - C3,Channel 15 - T7,Channel 16 - P7,Channel 17 - P3,Channel 18 - O1,Channel 19 - Pz
34.83284799,29.56541305,6.33871442,-9.011684071,6.822897043,-4.971691828,-76.85471067,-24.49913693,-24.78664882,-11.39048108,-16.27779801,6.561949343,-2.388591091,6.542035659,6.798054004,24.78252487,24.49644469,-0.554980447,-0.196447674
26.06834557,18.22616332,3.669728535,-10.5032032,-0.566180497,-13.06238969,-72.50757229,-29.34932713,-36.27783963,-19.14898393,-26.51287824,-2.864254408,-12.72131876,-5.890383858,-1.148990031,11.15210279,9.819928921,-5.208649073,-6.44148503
11.63134201,4.430875293,3.334144184,-5.249366254,-5.002978316,-14.96506079,-41.88747977,-23.47681551,-37.17369524,-19.54225102,-25.05321381,-5.663226303,-17.6344804,-13.84205981,-3.679602279,-1.757885963,-6.417272108,-4.067847549,-7.630294008
-0.387977771,-4.590173304,5.177880881,3.519402804,-4.3232143,-9.666843949,-3.789997298,-11.23009973,-29.36713691,-13.23658417,-14.2485106,-0.964630594,-14.26727603,-12.98336022,0.152004027,-7.820340463,-15.9299482,0.91631332,-3.913972378
-4.933561386,-5.914046493,7.082477778,10.43522609,-0.248341206,-0.97001015,20.38579202,-0.305109383,-19.43404408,-4.77597554,-1.916027335,6.672649501,-5.264554563,-4.904754985,6.711196173,-5.901505709,-15.64717842,5.291187611,1.058788664
-2.955810592,-2.286223148,6.665578672,11.72387565,3.14474254,5.393177424,20.82786151,3.600163111,-13.96587731,0.739481222,4.065837863,10.69580457,3.140392769,4.338119572,10.56313002,-0.099300812,-9.012204828,5.44098919,2.98382089
0.272890938,0.762189282,3.19861757,7.610124216,2.641807077,5.90206581,4.308386854,0.335639916,-15.31006919,1.093704156,0.874743367,7.436601824,5.534449763,8.733772137,8.521758469,3.719161836,-2.585415666,1.123072387,0.117802036
-0.209267559,-0.515129037,-1.795503917,1.691210403,-1.759580628,1.498247888,-12.87362939,-5.392882669,-20.65147392,-1.985161211,-8.000116284,-1.26857497,0.961641743,6.436512674,1.871483108,2.321371809,-0.850511592,-4.62741563,-5.58883056
-5.288729071,-5.468968528,-5.72553592,-2.065468622,-7.138103536,-3.608796083,-17.73276414,-8.112281524,-24.76983137,-4.735693189,-15.91351898,-9.617396039,-6.776050076,0.539291333,-4.845109213,-2.845981928,-3.256146863,-7.965934379,-10.18214785
-11.66361551,-10.20314252,-6.914568936,-2.271773759,-10.17848364,-5.416164153,-9.203981142,-5.751179197,-24.14289893,-4.566230073,-17.96305952,-12.23511634,-12.14649387,-3.775373937,-7.386051648,-7.278659393,-5.48541271,-7.044695839,-10.74143384
-15.03417722,-11.15635187,-5.778415979,-0.77504353,-9.794475891,-3.061928121,3.310880179,-0.783387805,-19.31452557,-2.008216306,-13.98688525,-8.037593867,-11.82882839,-3.265238346,-4.888279558,-7.152423848,-3.516355734,-3.029938708,-7.352394778
-13.67511144,-7.983354451,-4.289762002,-0.706255585,-7.750170259,0.951035317,9.005057251,2.19847338,-14.02140049,-0.023109294,-7.822728202,-0.767130203,-6.707159555,1.258291569,-0.179953808,-2.16186021,2.998909744,1.233521209,-2.624642041
-9.477590156,-3.473730623,-4.234025161,-3.670590193,-6.921961751,3.120094284,4.329181546,0.258517999,-12.09897335,-1.415402202,-3.944581656,3.94048176,-0.74779811,6.076711525,2.6780427,4.592707237,10.64571349,3.60459459,0.606499118
-5.914379324,-0.883814634,-5.723531129,-8.3913058,-8.77466249,1.7741324,-5.451419536,-5.781224087,-14.69097548,-6.516791925,-4.331348169,2.543188551,2.042027314,7.704333586,1.503903087,9.270008997,15.20242248,4.098793639,1.401445015
-4.964271636,-1.158255063,-7.167994914,-11.80530886,-12.16790245,-1.892611179,-12.03003485,-12.31940698,-19.75036201,-12.9244291,-7.770703901,-4.305337842,0.176284056,5.390581376,-2.662302444,10.19086195,14.98390124,4.399452355,1.025505369
-5.681288367,-2.38658607,-6.661297881,-11.57604501,-14.39272085,-5.173708881,-11.44475398,-15.89530434,-23.87520381,-17.33040887,-11.58371895,-12.7667571,-4.901719415,1.17708784,-6.794763254,8.734258325,11.85189469,6.091459466,1.443376976
-5.436780503,-1.758850465,-3.587788423,-7.91087342,-13.45559558,-6.20305661,-6.734491219,-15.54599927,-24.80523495,-17.85442676,-13.92330126,-18.75894199,-10.40054402,-2.162073638,-8.419042592,7.785615115,9.307275395,9.239553355,3.466583196
-2.489093954,1.853093693,0.876383936,-3.260988818,-9.662701036,-5.274010653,-4.210934344,-12.87646881,-22.68117605,-15.06369085,-14.74196986,-20.44644159,-14.19277417,-3.356538258,-7.316268995,9.243060563,9.493892071,12.45142763,6.139310522
2.480622508,6.94724559,4.726483939,-0.27898063,-5.25249017,-4.182267668,-7.287152187,-10.18262724,-19.39933987,-11.08865502,-15.00912554,-18.66344413,-15.74604418,-3.253386628,-5.200411838,12.62963444,11.64493905,14.18231123,7.740413835
7.123812682,10.76839944,6.700275851,0.211836691,-2.507474498,-4.40561678,-13.51224053,-8.490386599,-16.9196659,-7.799942521,-15.315983,-15.49503748,-15.65495497,-3.585939327,-3.960322559,15.73011411,13.0707937,14.00521137,7.37313809
9.615245626,11.65901412,7.146285314,-0.384740019,-1.994993933,-5.822923523,-17.16688721,-7.157371404,-15.98325699,-5.611572092,-15.306868,-12.55498931,-14.62915117,-5.226184018,-4.135261407,16.46889854,11.59697425,12.74249762,5.708921326
10.20881757,10.29528962,7.52486118,0.1447206,-2.362667752,-7.02552,-14.7060141,-5.102845594,-16.05842752,-3.73238988,-14.33958916,-10.33097249,-12.98358292,-7.491618426,-4.846588935,14.39856149,7.294137028,11.47912973,4.304725037
10.77895274,8.833418143,9.035881373,2.890247461,-1.728407009,-6.778863608,-8.002754864,-2.28138692,-16.19071331,-1.363850339,-12.50803422,-8.72344579,-10.90968624,-8.957519392,-4.984315118,10.73787468,2.175467508,10.49029791,4.193865648
12.84765736,8.869830113,11.55372433,6.9794835,0.612491971,-5.213397046,-2.591182152,0.054849019,-15.80514686,1.384993922,-10.85378246,-7.824237196,-8.938686482,-8.850093082,-4.371066692,7.218955226,-1.616669603,9.117464486,5.027561514
15.94553606,10.08363953,13.7238803,10.40957339,3.599520778,-3.673743056,-2.679539892,0.507518776,-14.82397379,3.663996237,-10.4643018,-7.985069852,-7.872496292,-7.681949907,-3.802461165,4.884732676,-3.413385361,6.669440098,5.475369413
17.80423222,10.69819211,14.06487275,11.70187542,5.329691401,-3.432577845,-7.47831958,-1.059144477,-13.27037993,4.828886885,-11.31305319,-9.153426818,-8.110798245,-6.61051239,-4.023951683,3.763250422,-4.09254402,3.424931806,4.452111599
16.20839927,9.217475732,12.10314806,10.92575162,4.599494479,-4.492300394,-12.03183471,-3.235963065,-11.00971612,5.139142156,-12.02357889,-10.31951357,-9.041030946,-6.219883446,-4.728418076,3.399395378,-4.800581502,0.697647944,2.053002965
10.87125256,5.797989093,8.613319376,9.297397952,1.747363231,-5.56765518,-11.65747779,-4.231950636,-8.018467134,5.464436071,-10.92375334,-9.878776324,-9.22425718,-5.92342662,-4.617472878,3.490356242,-5.679123779,-0.201937488,-0.590935144
3.71852288,2.04287177,4.84947803,7.841118148,-1.807993162,-5.240757099,-5.988067545,-3.451650113,-4.89469717,6.256231369,-7.552384751,-6.825353078,-7.412518005,-4.55382788,-2.543353297,3.971191043,-5.799712444,0.786243053,-2.334821196
-2.605203817,-0.506412827,1.504967253,6.377575133,-4.786055768,-3.230991386,0.859050628,-2.051097978,-2.94237667,6.805637161,-3.296930289,-1.811145217,-3.619831747,-1.579516398,1.292050532,4.613405478,-4.272772634,2.181870573,-2.970459568
-6.663449129,-1.736071009,-1.690710119,3.744852475,-6.901519231,-0.653607947,3.941877151,-1.932992447,-3.482557727,5.616861179,-0.531597076,2.924060823,0.686039847,2.193350208,5.203931761,4.759885005,-1.376337811,2.008407294,-3.285244375
-8.951685637,-2.925234109,-5.441263581,-0.968983638,-8.688561879,0.929629869,1.640914406,-4.026663871,-6.791729113,1.726048897,-0.891251542,4.864126894,3.519115026,5.098183762,7.154760942,3.666866178,1.432663993,-0.62393597,-4.241621747
-10.92393618,-5.377270872,-9.952916671,-7.297972169,-10.6074569,0.800217392,-3.27283157,-7.343177927,-11.54413369,-4.127016981,-4.056167427,2.850744474,3.743479045,5.858626402,6.23351733,1.2342304,2.67402875,-4.715633622,-6.054676561
-13.33552524,-9.015927799,-14.46624296,-13.3983646,-12.3635829,-0.411413569,-6.347087142,-9.643866675,-15.3616981,-9.57321607,-8.006147991,-2.170773618,1.802736628,4.519900399,3.259756459,-1.608858753,2.1019348,-8.07178502,-7.983029366
-15.44730238,-12.27008573,-17.68339421,-17.23368204,-13.09552339,-1.391916799,-5.343002771,-9.194175851,-16.23231495,-12.06894646,-10.50586782,-7.819016133,-0.741634211,2.26961391,0.041297269,-3.38716079,0.892528291,-8.974288169,-8.974952467
-15.77084901,-13.38629152,-18.7333214,-18.00436236,-12.232317,-1.335389617,-1.894264499,-6.174668485,-13.83440419,-10.71575238,-10.62921144,-11.81042659,-2.447782131,0.350572873,-2.047743493,-3.173646643,0.572710853,-7.491649876,-8.561022782
-13.60002818,-11.99790293,-17.8518691,-16.68300305,-10.18608001,-0.599229939,0.296813462,-2.629421815,-9.809768546,-7.052034659,-9.188870939,-13.23453543,-2.999349147,-0.948135976,-2.97213271,-1.401861945,1.658217992,-5.371126713,-7.21296513
-9.870439624,-9.524197018,-16.19453549,-15.24548518,-8.198464083,-0.302596369,-1.147472024,-1.038654669,-6.768559643,-4.149435369,-7.888825056,-12.77177745,-3.232906059,-2.349282483,-3.736561864,0.361867093,3.237090363,-4.61048882,-5.901702241
-6.518561098,-7.996996476,-14.92236921,-15.21114831,-7.430965824,-1.30030966,-5.401404027,-2.663622027,-6.707083379,-4.606305408,-8.01244914,-11.92717406,-4.28859882,-4.703249756,-5.257584915,0.601415689,3.873357866,-5.865965433,-5.289673206
-4.878102871,-8.302850114,-14.2926151,-16.59337095,-8.068102821,-3.473889412,-9.579028934,-6.87736775,-9.888924485,-8.840007065,-9.68914535,-12.01569839,-6.675104901,-8.011837177,-7.456105601,-0.932022005,3.002181687,-7.955483266,-5.262152868
-4.521966119,-9.359232488,-13.47022694,-17.97743928,-9.189627626,-5.924175368,-11.59058267,-11.8086097,-14.84743138,-14.83644133,-12.15487119,-13.60955959,-10.00712271,-11.26732761,-9.348246025,-2.976245368,1.533179975,-8.808858588,-5.145129387
-3.576248527,-8.955675455,-11.19616526,-17.56431119,-9.500710183,-7.802461634,-11.96092833,-15.61184077,-19.37132167,-19.4531161,-14.56728933,-16.60430378,-13.51026908,-13.25747992,-9.984656815,-3.725192247,1.083606126,-7.069921523,-4.340641794
-0.260878748,-5.578988445,-6.792870517,-14.36689534,-8.296110203,-8.970233826,-13.002193,-17.3676471,-21.74722401,-20.32390428,-16.59475881,-20.54963482,-16.71947434,-13.61020335,-9.348470722,-2.252516757,2.495487438,-3.096549771,-2.794366481
5.624051205,0.277338306,-0.767647618,-8.771474496,-5.89042484,-9.904972429,-16.27850365,-17.14676354,-21.51980574,-17.12384391,-18.37279568,-24.84520101,-19.70311627,-13.13517221,-8.403699643,0.742438757,4.950186808,1.34625841,-0.937796119
12.46572839,6.367748746,5.38133806,-2.245627468,-3.253860755,-11.01628355,-20.85449209,-15.54200292,-19.47696784,-11.52653969,-20.06612041,-28.74383967,-22.65864043,-13.14168585,-8.271358421,3.450487859,6.493528287,4.355066036,0.742388452
17.97772418,10.26079552,9.960023236,3.438320673,-1.264551478,-12.08665338,-23.99814713,-13.27130619,-17.06096169,-6.097056948,-21.56918696,-31.40501737,-25.3391768,-14.30967434,-9.275383612,4.299507346,5.565493286,5.088143096,2.04956515
20.71301012,10.93283311,11.90169236,6.917697075,-0.234589217,-12.40154766,-23.65601182,-11.11173033,-15.61783415,-2.936839207,-22.61106344,-32.17838101,-26.92173299,-16.07534348,-10.67984862,3.062336231,2.258439581,4.045423135,3.032929353
20.74333151,9.177834742,11.12181566,7.58739177,-0.02129301,-11.44867201,-20.35473336,-9.904473995,-15.81296374,-2.836092035,-23.04736659,-30.96958974,-26.50184117,-17.0450039,-11.3051557,0.8962017,-1.742131073,2.383419323,3.673356873
19.10252022,6.663460702,8.301861163,5.61428925,-0.467971261,-9.504287612,-16.73273036,-10.26470644,-17.36713583,-5.20646942,-22.94026611,-28.33626225,-23.80883934,-16.0798152,-10.458066,-0.633068958,-4.463855106,0.948164179,3.686635864
16.64991153,4.54381494,4.372451531,1.780310405,-1.662406706,-7.515639857,-15.12322355,-12.04872979,-19.17005247,-8.601568524,-22.31554629,-25.14139258,-19.52172626,-13.15624107,-8.39584608,-0.711596029,-5.099725108,-0.200414906,2.694111806
13.40429043,2.771115464,0.068420229,-2.776795195,-3.758258759,-6.345511165,-15.42535284,-14.10323356,-19.7766376,-11.45677567,-20.91123527,-22.0064713,-14.90758698,-9.338441806,-6.009642863,0.266641892,-4.431705952,-1.524021872,0.620162039
8.855806488,0.528725746,-4.234182428,-6.948771957,-6.585820149,-6.052497237,-15.24313434,-14.77684022,-18.16159098,-12.7479806,-18.31492312,-19.03727091,-11.07843905,-5.95976573,-4.095028358,1.194721811,-3.960855286,-3.380187325,-2.07816155
2.840608025,-2.763268287,-8.423733584,-10.1096125,-9.505175092,-5.870530614,-12.19096277,-13.04252999,-14.39476067,-12.38135258,-14.49697593,-16.07397181,-8.454558868,-3.729354996,-2.866148603,1.182808543,-4.560758872,-5.623826003,-4.611595335
-3.901402392,-6.804068309,-12.45240898,-12.39557928,-11.71667852,-4.926612488,-6.272343141,-9.412799298,-9.792748008,-11.1846789,-10.25769774,-13.21743904,-6.797889133,-2.454566286,-2.054702929,0.150139833,-5.805110742,-7.717225956,-6.35635814
-10.0063216,-10.6133393,-16.16509676,-14.54079191,-12.78516143,-3.065804076,-0.151598042,-5.806139794,-6.309060488,-10.45018547,-7.041195023,-11.08018414,-5.673555429,-1.483866288,-1.364003188,-1.30169952,-6.468381895,-9.14753137,-7.231752133
-14.33162775,-13.26640113,-19.22253681,-17.25549643,-12.90590109,-1.048493033,2.970940467,-4.286445699,-5.415253333,-11.17455811,-6.074148035,-10.4292916,-4.876010392,-0.378932005,-0.768141262,-2.477635156,-5.672986672,-9.729548164,-7.635191022
-16.60934021,-14.44478593,-21.13869969,-20.52392028,-12.66470018,0.05785917,2.017320592,-5.554188103,-7.163674398,-13.38384595,-7.44655788,-11.46922275,-4.480652374,0.776636964,-0.386810678,-3.061864087,-3.650977106,-9.556968836,-8.000924019
-17.37643802,-14.37061871,-21.43422872,-23.36726266,-12.50833133,-0.244180657,-1.117061192,-8.376702276,-10.11234397,-15.99434774,-9.936458552,-13.42400114,-4.588406862,1.606245783,-0.149317225,-3.116726973,-1.497897342,-8.730187463,-8.376304987
-17.33019927,-13.33004901,-19.86783872,-24.34526985,-12.40457909,-1.502523943,-3.251112551,-10.46681136,-12.24195843,-17.38769447,-11.84301775,-14.90126547,-5.111511324,1.875339952,0.308003902,-2.747294916,-0.208119516,-7.182942128,-8.38202726
-16.74020101,-11.35279424,-16.63778106,-22.51100206,-11.98483295,-2.746261393,-2.635221418,-10.16575196,-12.2653784,-16.38969265,-12.23894143,-14.85754595,-5.847469155,1.672037775,1.316996902,-1.868364384,0.121991457,-4.800722901,-7.573924672
-15.42015576,-8.389391146,-12.4099945,-18.12902068,-11.00397944,-3.318791049,-0.314720078,-7.616077374,-10.39245654,-13.00107681,-11.62693643,-13.40514814,-6.735325275,1.196042495,2.710248533,-0.355972604,0.246754689,-1.724534431,-5.874449458
-13.19074089,-4.77622506,-8.099391518,-12.5816547,-9.655514256,-3.367060491,1.003405439,-4.507552329,-7.981554439,-8.347798392,-11.41088585,-11.74860812,-7.959402937,0.442338937,3.717648245,1.562628034,0.983847481,1.450609788,-3.699868756
-10.3097561,-1.453283602,-4.490737587,-7.478406094,-8.424310787,-3.576444642,-0.491587425,-2.634115153,-6.34376908,-3.865240441,-12.56627316,-11.2260807,-9.706681392,-0.831801114,3.450938722,3.110571757,2.427181986,3.791120805,-1.693780909
-7.420811039,0.387992329,-1.919863783,-3.602908562,-7.60880017,-4.432042823,-4.019908751,-2.45483457,-5.626228166,-0.304895953,-14.60514139,-12.19604998,-11.76637019,-2.778417888,1.649411095,3.25499148,3.848706311,4.410636776,-0.316759248
-5.07083835,0.009260823,-0.2212782,-0.481931787,-6.974024509,-5.703314771,-6.844172518,-2.813164317,-4.651622591,2.704170472,-15.74705344,-13.68667101,-13.39817765,-5.097553952,-0.948057199,1.362682231,4.328899237,2.885222702,0.366071771
-3.275137413,-2.388759903,1.027165769,3.095107412,-5.893112031,-6.622533466,-6.613282949,-1.984651301,-1.8503359,6.224148249,-14.23894063,-14.13017043,-13.71899844,-7.061787529,-2.991405579,-2.262396184,3.514871582,-0.54216804,0.570885019
-1.562941115,-5.806842617,2.141102926,7.992982408,-3.888340797,-6.579811148,-3.330666294,0.864608497,3.433777639,11.05053545,-9.801105884,-12.61619511,-12.38685771,-8.008229612,-3.43512874,-6.401820996,1.833274436,-5.05061397,0.52294034
0.523836926,-9.096114452,3.103955689,13.89039497,-1.106668019,-5.685881423,0.734603918,5.010099255,10.2743424,16.95226137,-4.026670721,-9.659355119,-10.01947483,-7.917040033,-2.286312981,-9.546092245,0.011254987,-9.54216983,0.298577029
2.934461455,-11.58773551,3.618252737,19.29556462,1.691274829,-4.683518114,3.02205702,8.770928246,16.63953819,22.65268142,0.626382816,-6.861067761,-7.917277698,-7.54622608,-0.594065593,-10.71763465,-1.615346552,-13.0085071,-0.108977017
5.067050608,-13.24011233,3.360488109,22.39010926,3.623091557,-4.290331831,2.748702033,10.78855057,20.63914182,26.51932073,2.493504471,-5.735647324,-7.202687901,-7.924065162,0.316640939,-9.953443163,-3.359724085,-14.83875792,-0.634587037
6.210193414,-14.29367336,2.229200153,22.08854772,4.233878042,-4.57365344,1.303447422,10.88785765,21.6035336,27.43460799,1.745835677,-6.626748783,-7.995592823,-9.54516305,-0.224995113,-8.159965207,-5.777703062,-14.98173477,-1.108596475
6.06417455,-14.83825819,0.415312702,18.60063243,3.651406415,-4.921631409,0.762563791,9.884899655,20.24799111,25.27424805,0.0594636,-8.532777942,-9.273207388,-11.90110647,-1.833914772,-6.485430275,-8.975041488,-13.90143221,-1.400894165
4.889886112,-14.709807,-1.713702385,13.19806355,2.275906569,-4.624814772,1.976615243,8.666429707,17.92946259,20.79816484,-0.749167735,-9.907553543,-9.557327971,-13.74200075,-3.440200058,-5.647358813,-12.26329986,-12.31722584,-1.578208647
3.198318519,-13.76580887,-3.787738169,7.456366895,0.360384316,-3.527628923,3.959353307,7.460987365,15.68479649,15.19707621,-0.00328288,-9.750558727,-7.933159105,-13.89561416,-4.076217665,-5.62514743,-14.49416206,-10.82848873,-1.86835715
1.312890682,-12.21101395,-5.535170627,2.533515084,-2.089685016,-2.155625003,5.034759346,5.947396406,13.80713492,9.676036929,1.602052213,-8.156804436,-4.652227964,-12.03716416,-3.462343374,-5.845436915,-14.8198835,-9.630008603,-2.414551395
-0.781016141,-10.6094614,-6.787523609,-1.106324964,-5.015250876,-1.215233995,4.57993093,3.99795358,12.16392059,5.248095165,2.860846857,-6.022048522,-0.908839825,-8.857073641,-2.023158702,-5.673132581,-13.27585638,-8.51405632,-3.040465071
-3.197751286,-9.53864448,-7.461605029,-3.518352011,-7.950674635,-0.943047877,3.703615694,2.230764822,10.7954037,2.627033535,3.166752323,-4.295905973,1.979804282,-5.555465603,-0.459259038,-4.870695865,-10.74328837,-7.176742699,-3.284745392
-5.812691023,-9.195238977,-7.586770789,-4.948520794,-10.06131497,-0.917683856,4.226531814,1.72367316,10.13242859,2.050351046,2.903050299,-3.447738184,3.339141624,-3.093510406,0.6985013,-3.7564602,-8.35895404,-5.605572892,-2.738096821
-8.199764726,-9.310768507,-7.354550747,-5.642871329,-10.65823584,-0.514619163,6.904167127,3.054905301,10.58717812,3.070481494,2.841194591,-3.484406297,3.317265028,-1.755368869,1.230314397,-2.997288426,-6.852207719,-4.225068404,-1.423282849
-9.931543634,-9.443099889,-7.100397459,-5.855088334,-9.790182215,0.419514412,10.52293287,5.532354221,11.91013217,4.570274982,3.170117952,-4.299318992,2.468136349,-1.260179923,1.089315564,-3.180675757,-6.282097627,-3.639956226,0.121432768
-10.9512619,-9.36344899,-7.165583545,-5.902837563,-8.359584284,1.315528979,12.7114963,7.399402761,12.98876475,5.204578285,3.093267455,-5.874524235,1.189652895,-1.211096348,0.246973504,-4.4244692,-6.272496988,-4.143091758,1.165127412
-11.63586683,-9.187365089,-7.703573097,-6.115955894,-7.566779796,1.321674654,11.78299413,6.99340798,12.42250502,4.127991137,1.411410882,-8.111578622,-0.498244212,-1.45642635,-1.285261155,-6.255657042,-6.448774058,-5.381800762,1.274737374
-12.45842284,-9.159235484,-8.57512914,-6.680416391,-8.065950169,0.069341965,8.031867461,3.98264448,9.525404945,1.536318606,-2.380554041,-10.54178276,-2.726484731,-2.101541089,-3.323666309,-7.838554808,-6.686585587,-6.488430428,0.580823974
-13.54915291,-9.3330703,-9.430277481,-7.525672072,-9.504872169,-1.921153513,3.41405315,-0.329149969,4.971998504,-1.429537689,-7.443038572,-12.36597091,-5.411875564,-3.255615004,-5.490298278,-8.427774829,-7.021902911,-6.620943971,-0.386045183
-14.56576257,-9.476682825,-9.929692932,-8.382590058,-10.8398304,-3.587254449,-0.052011016,-3.920567075,0.507705989,-3.436302366,-12.01168087,-12.97667152,-8.156645223,-4.805677149,-7.41124383,-7.774518848,-7.392755734,-5.51528339,-1.12519484
-14.99902137,-9.288469716,-9.938623486,-8.980513663,-11.18386422,-4.158952565,-1.77347526,-5.498199818,-2.146429784,-3.86464892,-14.6281827,-12.59065678,-10.52335465,-6.426965065,-8.988784665,-6.228725077,-7.506019324,-3.620865447,-1.480756922
-14.62465364,-8.695919871,-9.544279731,-9.216138366,-10.49774964,-3.775612633,-2.759349664,-5.349963881,-2.418911408,-3.198286612,-15.22719679,-12.38229388,-12.41276137,-7.785719667,-10.47600964,-4.470659979,-6.973911704,-1.717729251,-1.58852945
-13.66669251,-7.920433603,-8.895040294,-9.149578934,-9.560098146,-3.347780278,-4.473949267,-4.968175694,-1.211030142,-2.589731561,-15.1971311,-13.83453219,-14.15696446,-8.723674091,-12.23673796,-3.061589555,-5.611020156,-0.333969541,-1.556380096
-12.51142679,-7.23012478,-8.012395897,-8.846035646,-9.255854931,-3.767337618,-7.45747321,-5.785110183,-0.177664915,-2.928862869,-16.32224675,-17.67806559,-16.19628185,-9.272771602,-14.37357034,-2.139289374,-3.651732283,0.560084796,-1.230867238
-11.25459412,-6.629768079,-6.751378154,-8.232187455,-9.791217084,-5.1281313,-10.882757,-8.035051771,-0.504349341,-4.133805918,-19.38881189,-23.20856052,-18.59903437,-9.542853838,-16.56036218,-1.479986909,-1.726799136,1.347371613,-0.313519849
-9.552895665,-5.827021146,-4.958244145,-7.130896452,-10.49627442,-6.613679803,-13.29969849,-10.59637475,-2.081282743,-5.211321461,-23.50670471,-28.56192312,-20.85216729,-9.64262091,-18.25622156,-0.862277844,-0.623801588,2.25453066,1.260240952
-6.985399849,-4.560160928,-2.701507653,-5.473541696,-10.37541427,-7.14548034,-13.79123986,-11.85370479,-3.650182431,-5.02755451,-26.6569104,-31.81922741,-22.14054692,-9.720045944,-19.13571033,-0.417158879,-0.981717062,3.001910699,3.050476357
-3.637343476,-3.002541862,-0.37833782,-3.509186605,-8.941192001,-6.249533229,-12.52602316,-10.84608957,-3.757860813,-3.177199386,-27.05630368,-32.16861424,-21.92177863,-10.0335791,-19.35791603,-0.642819468,-3.059473912,2.93644387,4.262531624
-0.354914521,-1.829576816,1.416427891,-1.796948876,-6.645519741,-4.42837441,-10.36074935,-7.837467008,-1.771655052,-0.281060624,-24.3416007,-30.29599908,-20.34394284,-10.88824196,-19.42146765,-2.027544908,-6.63272972,1.553306377,4.263135046
1.646511465,-1.795337796,2.195947019,-0.923730764,-4.573640195,-2.751981044,-8.022892614,-3.992736889,1.775200078,2.487800286,-19.74300089,-27.75735965,-18.16640995,-12.3921512,-19.71349609,-4.557014329,-11.01601813,-1.021214852,3.059554668
1.584912387,-3.107678338,1.868729282,-1.115985189,-3.674986485,-2.027422932,-5.680424514,-0.552763184,5.682776126,4.243337468,-15.18327874,-25.83799376,-16.23411401,-14.2037855,-20.13664297,-7.509104891,-15.21082922,-3.982450191,1.330341215
-0.301976636,-5.119614293,0.820884838,-2.029461087,-4.154247661,-2.2280459,-3.200731522,1.808129581,8.961449877,4.930259156,-12.00450723,-24.74210463,-14.90258736,-15.53090428,-20.13901955,-9.742374608,-18.18510908,-6.276046639,-0.045623999
-2.882946389,-6.646132797,-0.266058542,-2.904417935,-5.464878531,-2.61035281,-0.678184602,3.05283625,11.38878602,5.189595719,-10.23509977,-23.64725908,-13.84103662,-15.48879972,-19.12805676,-10.31096171,-19.23285522,-7.173719198,-0.595174036
-4.906264172,-6.723592432,-0.765654074,-3.025347997,-6.825365185,-2.364426036,1.413641125,3.430785878,13.37192897,5.721150018,-8.853833737,-21.48752139,-12.34553078,-13.63338073,-16.92650672,-8.986686216,-18.26710302,-6.589781006,-0.511483031
-5.82838349,-5.260813751,-0.438634257,-2.198744129,-7.776378637,-1.234113041,2.632106667,3.149175657,15.32558147,6.694283256,-6.765563477,-17.83274196,-9.918850391,-10.30232952,-13.90980993,-6.340491013,-15.86691944,-4.981575905,-0.382908382
-6.064879939,-3.097398923,0.42966868,-0.922479384,-8.337048874,0.371455473,3.085479255,2.350703814,17.14542317,7.66981572,-3.728161837,-13.25300359,-6.70225296,-6.498579824,-10.75265941,-3.366617927,-13.00432947,-3.007487215,-0.649216074
-6.503878697,-1.43346629,1.170363704,-0.102647406,-8.721238129,1.789000511,3.450599725,1.296282443,18.23539414,8.04985468,-0.573047281,-9.002740503,-3.47888756,-3.37188093,-8.038257895,-0.951710976,-10.57559922,-1.240496049,-1.253756934
-7.710376793,-1.059899991,1.101606233,-0.46583344,-8.95805571,2.627575629,4.367829808,0.436866336,18.05987159,7.651233847,1.385526824,-6.331892983,-1.274441322,-1.642836384,-6.055961405,0.450817738,-9.005681744,-0.083618908,-1.759666003
-9.465278614,-1.933829688,-0.046242249,-2.029497342,-8.795282534,2.970823497,5.751721246,0.20555128,16.74453715,6.930504202,1.284505353,-5.890212502,-0.823602955,-1.339341358,-4.887637278,0.801294801,-8.158413105,0.203858393,-1.77896191
-10.96846892,-3.345099381,-1.889457621,-3.986487638,-7.955197844,3.154259598,6.717326698,0.692609403,15.19857353,6.693910742,-0.674164829,-7.505528222,-2.205958779,-1.965184952,-4.59345129,0.255642211,-7.580157693,-0.463222596,-1.304352953
-11.48125002,-4.472901952,-3.515765159,-5.120843568,-6.468214504,3.393619201,6.291961599,1.534438481,14.60724952,7.531929924,-3.319943284,-10.3245996,-4.810162611,-2.905646424,-5.236016716,-0.997431143,-6.881718584,-1.884357268,-0.657563173
-10.85908468,-4.891854257,-3.966442618,-4.535684152,-4.745687727,3.624074273,4.337102077,2.17702945,15.6445545,9.405414179,-5.206206407,-13.15153493,-7.596747928,-3.745970765,-6.689228244,-2.723421478,-5.989820093,-3.538672369,-0.144581287
-9.573506985,-4.702437159,-2.823660951,-2.248040632,-3.308735009,3.661068934,1.850022874,2.325281328,17.98845283,11.6653966,-5.414149983,-14.84630178,-9.513207468,-4.316686278,-8.449800049,-4.548681891,-5.12203915,-4.78145887,0.220137644
-8.273239132,-4.284837256,-0.519256386,0.751274432,-2.412317554,3.472263654,0.316398219,2.196188435,20.50898345,13.46078751,-3.972464761,-14.71436561,-9.89289091,-4.540624168,-9.724231739,-5.965221057,-4.551033885,-5.207216359,0.64383459
-7.287178229,-3.928612017,1.89903208,3.060296686,-1.895176711,3.259562399,0.610139138,2.34600926,22.0065793,14.23693671,-1.70187652,-12.79990469,-8.700418648,-4.30864359,-9.828731597,-6.495457478,-4.360895415,-4.894076333,1.219147813
-6.452829121,-3.60772842,3.457724834,3.731753158,-1.37515438,3.258510211,2.34386129,3.206388729,21.97745263,14.01198586,0.331061943,-9.925191344,-6.536057942,-3.537643344,-8.627333817,-5.89748197,-4.372694971,-4.275912916,1.683111865
-5.33432567,-3.005956082,3.958866335,2.88963737,-0.602242016,3.455854968,4.193984596,4.714170742,20.87101325,13.30144927,1.372618874,-7.349113001,-4.382743141,-2.353168357,-6.645727484,-4.238495334,-4.273594056,-3.697621063,1.563005043
-3.586277128,-1.725656986,4.16630946,1.666299031,0.340815076,3.521044706,4.899907987,6.334754239,19.68295166,12.78537443,1.252214848,-6.124656326,-3.179319113,-1.190648011,-4.738066162,-1.793879016,-3.845263095,-3.033145278,0.628561138
-1.174587585,0.451112256,5.27003024,1.462194852,1.141523022,3.05478071,4.101667377,7.443725581,19.21063217,12.93539271,0.307717865,-6.493352406,-3.398587052,-0.656905482,-3.54931425,1.097131267,-3.142166717,-1.758854357,-0.759753972
1.636686985,3.358241977,7.954084258,2.999118461,1.537902611,1.958491606,2.390606354,7.747121274,19.52826188,13.80235265,-0.876120218,-7.723172986,-4.831137141,-1.19258544,-3.180005568,4.060570228,-2.519204167,0.494587589,-1.780209723
4.413527573,6.38031103,11.7436121,5.810268842,1.511541259,0.600365947,0.674667381,7.425339789,20.05439784,15.05628449,-1.708289774,-8.54933537,-6.685062827,-2.754374552,-3.274676023,6.601707248,-2.49313908,3.349796184,-1.729846428
6.65043346,8.597711807,15.16574937,8.536340819,1.241832865,-0.384673758,-0.477696249,6.947020124,20.12920532,16.23735982,-1.710638688,-7.958513678,-7.947123645,-4.746242811,-3.389667818,8.085125049,-3.493529413,5.617344056,-0.606065121
7.830454457,9.157139272,16.68129276,9.841778661,0.907058046,-0.515428739,-0.948065515,6.763164015,19.63578344,17.07039246,-0.557118454,-5.791028486,-7.816478675,-6.267440984,-3.284154127,7.954280285,-5.605446582,5.95145397,0.814993665
7.54577005,7.741024663,15.74536243,9.318583925,0.548314624,0.224102961,-0.681285962,7.129976172,19.17332972,17.65532747,1.872985125,-2.756476851,-6.005300822,-6.539938286,-2.906829773,6.130203899,-8.429377862,3.812797033,1.518656896
5.715488536,4.863191561,13.21250343,7.742141582,0.122371288,1.415997719,0.639688886,8.124377883,19.63692099,18.40386624,5.401008255,0.108558168,-2.80067677,-5.275227431,-2.183891709,3.274870866,-11.16295717,-0.004252983,1.007200402
2.767107404,1.728424577,10.76256305,6.504676182,-0.336912933,2.533068258,3.392455014,9.718922564,21.51700509,19.74315997,9.493485439,2.106249981,1.085244272,-2.792848847,-0.920904549,0.602371349,-12.91671809,-3.753513377,-0.334087
-0.42747111,-0.36172636,9.757887896,6.64612723,-0.641952444,3.2841577,7.421020938,11.77078231,24.45474736,21.77540138,13.35714372,3.178437509,4.775658338,0.148398088,0.99784475,-0.759984514,-13.13101667,-5.81079924,-1.561333825
-2.925571265,-0.730731631,10.37886849,8.185184272,-0.563430489,3.723861509,11.68286796,13.94368916,27.40525847,24.14244323,16.20859058,3.685438312,7.504172193,2.703373955,3.274716182,-0.456610258,-11.85541842,-5.663174004,-1.923394745
-4.195632919,0.311892742,11.66677534,10.20901882,-0.036753812,4.090357822,14.6484208,15.7248416,29.30386425,26.21899133,17.59886213,3.933839323,8.84253347,4.305391258,5.108207708,0.890202053,-9.692784654,-4.083702408,-1.424987584
-4.367255509,1.751886054,12.39100768,11.59784056,0.737906439,4.553545276,15.28647083,16.6438947,29.7452686,27.50865694,17.59459777,3.890744029,8.827263154,4.881460508,5.569809313,2.157608999,-7.414698175,-2.397203075,-0.747913216
-4.054711095,2.608990314,12.0185296,11.79372262,1.410370235,5.090991147,13.85622857,16.58201157,29.16852847,27.93449332,16.68417645,3.304336317,7.92156711,4.824121604,4.24677934,2.549358312,-5.495701917,-1.454464746,-0.616245214
-3.888050909,2.583665831,11.01347266,11.03414126,1.716119663,5.557154399,11.78039619,15.89915929,28.41345051,27.77414473,15.45452232,2.06213048,6.78027435,4.728954964,1.63891584,2.130379489,-3.896969935,-1.13469059,-1.153653637
-4.114414135,2.121904494,10.27349121,9.938087044,1.625348262,5.830867876,10.60496475,15.2014122,27.99783791,27.28010547,14.24510807,0.410822426,5.890544378,5.021787237,-1.081294376,1.638500969,-2.258168227,-0.724027712,-1.777162464
-4.552553397,1.87784776,10.23567989,8.866940132,1.285148999,5.881618952,10.84108648,14.87389578,27.68728343,26.32297299,13.00652591,-1.18780677,5.281725109,5.678840495,-2.837790898,1.733601125,-0.338283049,0.22723311,-1.709652892
-4.865000233,2.057682698,10.45168329,7.642922368,0.837603393,5.708714228,11.62668102,14.75237086,26.70883076,24.42657429,11.44991781,-2.431819584,4.515766198,6.22289347,-3.377325465,2.328113759,1.66487389,1.355649054,-0.667986713
-4.846211367,2.230877591,10.01376476,5.866886606,0.31393775,5.25204958,11.48748586,14.24520418,24.45527107,21.25258322,9.370115373,-3.419952726,3.018137101,6.032814982,-3.367749734,2.594154832,3.19912304,1.740263226,0.862027807
-4.456410273,1.785491542,8.463082759,3.528103511,-0.283214473,4.403503843,9.570823682,12.85847886,21.12526085,17.16657309,6.906462498,-4.504210745,0.563447427,4.796865732,-3.769249955,1.674969742,3.79131856,0.744335162,2.000920267
-3.623693848,0.619885913,6.368075651,1.314382238,-0.807576934,3.138152152,6.347296699,10.71343856,17.76722447,13.35061838,4.554993585,-5.856597462,-2.423661401,2.811186063,-4.977885304,-0.491729563,3.460525922,-1.300375813,2.190369709
-2.101071904,-0.58291815,5.013359263,0.265728274,-0.925675535,1.646748489,3.243993135,8.606575142,15.6422531,11.21959679,2.924064676,-7.133369125,-5.003443893,0.891013958,-6.444921712,-2.967384168,2.729511402,-3.195968171,1.652384744
0.371073732,-0.818082787,5.389919805,0.983493024,-0.316998382,0.323618524,1.570679558,7.513593815,15.357937,11.46657955,2.40225292,-7.567978496,-6.24324412,-0.089746592,-7.097222713,-4.462047104,2.17907718,-3.739119731,1.208229535
3.668392455,0.372018555,7.297682545,3.030496,1.012555043,-0.420354681,1.651154106,7.90076584,16.43097665,13.44876916,2.959667391,-6.473645903,-5.782319613,0.253427571,-6.226254276,-4.354519246,1.895012398,-2.66667741,1.596173992
7.025779936,2.358772641,9.328342564,5.061846317,2.588394789,-0.394424323,2.824498122,9.386241684,17.63418531,15.46461393,4.203500975,-3.785330658,-4.040637068,1.550953973,-4.121976361,-3.249971685,1.29189035,-0.920835339,2.831312024
9.261383096,3.735973758,9.804478087,5.663466067,3.676896871,0.265019049,4.19284257,11.02329656,17.88946237,15.82722126,5.634625694,-0.217742157,-1.922448916,2.891697346,-1.930615081,-2.581486762,-0.478571831,-0.004010742,4.113901671
9.434928954,3.30385285,7.971403276,4.29505181,3.734625051,1.19895089,5.377196623,11.975222,17.03831873,13.9950158,6.926835175,3.095266594,-0.235725464,3.381712585,-0.843138238,-3.527416624,-3.80748365,-0.910735383,4.359743001
7.477335106,0.969682475,4.51612945,1.618773357,2.758421274,2.058610315,6.624839649,12.04143961,15.9004494,10.91444709,8.053000115,5.22611565,0.750263092,2.680782316,-1.253282817,-6.081114972,-8.15830688,-3.440700765,2.953169957
4.273835086,-2.164589351,1.014687124,-1.042213277,1.253649759,2.691916513,8.270607326,11.64041694,15.57504653,8.295446595,9.200210102,5.915105394,1.315150715,1.173481721,-2.528508198,-9.004068225,-12.24809726,-6.376579532,0.176294372
1.084073504,-4.612181586,-1.240445852,-2.690690127,-0.15377428,3.161695505,10.16133056,11.32816374,16.53542046,7.361927044,10.56189259,5.598240656,1.922307159,-0.305267545,-3.529792521,-10.69989701,-14.7864925,-8.337522049,-2.964966072
-1.275779792,-5.562194359,-2.099627463,-3.312608319,-1.137948437,3.616997819,11.65507232,11.31796617,18.24402632,8.040195108,12.17016257,5.064285265,2.818855925,-0.971562485,-3.43172152,-10.33020299,-15.24067084,-8.641321338,-5.352047997
-2.849744357,-5.343758606,-2.445059831,-3.698787743,-1.781347286,4.145643393,12.22394908,11.43017237,19.61504321,9.205897313,13.88891039,5.030224257,3.926731073,-0.485864541,-2.208174204,-8.329598478,-14.07064503,-7.576630258,-6.357717354
-4.239126977,-4.950134673,-3.252927348,-4.603499694,-2.308741093,4.723574177,12.07727271,11.47747369,19.97034431,9.757128756,15.55866453,5.887963158,5.061109307,0.968043981,-0.480093191,-5.978816492,-12.28875568,-5.992225569,-6.067404581
-5.8633103,-5.06472924,-4.638332881,-5.953782265,-2.723771655,5.271422688,12.15482935,11.66448213,19.70547168,9.603162287,17.15804326,7.662796069,6.207430641,2.880411747,1.044285143,-4.432256827,-10.7076646,-4.61425047,-5.057881059
-7.438659245,-5.434230993,-5.685692026,-6.787300841,-2.715073645,5.733754715,13.3889377,12.54387639,20.06470187,9.720936662,18.81752041,10.05858804,7.539608582,4.69049308,2.025747295,-3.971757506,-9.446671481,-3.621229432,-3.969831358
-8.142252543,-5.117444259,-5.205147081,-6.005739485,-1.94946786,6.093507893,15.80845991,14.47646177,22.1105146,11.20498053,20.62496367,12.48717694,9.117389586,5.965650015,2.512600801,-4.002238201,-8.021835315,-2.711263938,-3.183777279
-7.330330295,-3.378201269,-2.788365951,-3.356099483,-0.497386811,6.314485964,18.25378848,17.04106924,25.64810128,14.09838241,22.34167662,14.12662997,10.53615674,6.455580738,2.620176921,-3.676173573,-5.874571418,-1.486131723,-2.75586743
-5.185055279,-0.437948366,0.711629256,0.163297022,1.022687109,6.28570576,19.00793198,18.97900238,28.99162581,17.02588694,23.27399348,14.13425835,10.91133956,6.101854409,2.258726842,-2.570573408,-2.885006388,0.208822173,-2.553478367
-2.700410614,2.574625351,3.691169147,2.851488188,1.780523093,5.84645847,16.91764351,18.87545691,29.89369613,18.03631456,22.49967074,12.0362242,9.340047071,5.063486989,1.201663872,-0.894303847,0.504731759,2.216590434,-2.420490675
-0.967661614,4.455536712,4.924257477,3.450468633,1.335492784,4.897327991,12.19120738,16.16443507,27.0893629,16.07537725,19.41802078,8.104317963,5.57342568,3.719094161,-0.574740734,0.833693642,3.576462979,4.229354529,-2.247145899
-0.320061587,4.858300012,4.452702592,2.05335569,0.027870256,3.518021503,6.317719186,11.70464194,21.37659219,11.94810443,14.31354978,3.422447436,0.395445958,2.555615843,-2.628940557,2.258261701,5.740869326,5.982405333,-1.940494463
-0.0359729,4.56591648,3.572310304,0.095354516,-1.182458986,1.992474846,1.213929267,7.420877396,15.39169614,7.96543137,8.509545264,-0.515035612,-4.642363622,1.92939219,-4.163943208,3.387354723,6.750642095,7.342580028,-1.375882572
1.140992026,4.890627304,3.938838062,-0.584998519,-1.343857966,0.70311058,-1.776285639,5.178614539,12.11320981,6.460057252,3.878607776,-2.513473229,-8.027009967,1.828083159,-4.476530083,4.412978956,6.645026079,8.302724563,-0.406348663
4.058017724,6.693693582,6.45544539,1.045259689,-0.148448304,-0.049863483,-2.401458512,5.645240819,13.03301743,8.230817866,1.897475522,-2.283555913,-9.115824829,1.827203302,-3.411884532,5.407607461,5.588307857,8.961620162,1.055269815
8.502366644,9.788604794,10.71362386,4.570994509,1.891679329,-0.192863584,-1.345064207,7.929805657,17.2137124,12.04566496,2.805401925,-0.555719665,-8.431901462,1.332024244,-1.477694938,6.215070196,3.794019034,9.50659631,2.9268992
13.30448658,13.13291412,15.30281988,8.457504397,3.833060206,0.103488363,0.339709193,10.24447007,21.88375439,15.54510011,5.448197128,1.375473628,-7.226181439,-0.016538812,0.454671168,6.605550907,1.557655167,10.13443609,4.88876788
17.05488157,15.56438403,18.6722051,11.05689729,4.929358791,0.545421231,1.779581842,11.10688723,24.18937267,16.85487749,7.982406616,2.386032399,-6.618032029,-2.044168034,1.623533325,6.477925851,-0.740960504,10.87568194,6.411504651
18.85555649,16.45318648,19.90429702,11.55643265,5.023236946,0.90334012,2.565368605,10.24209437,22.94415056,15.73057206,9.021823116,2.082331313,-6.904238888,-4.077874167,1.696461656,5.861504997,-2.777418312,11.42212473,6.901680365
18.58770556,15.81416766,18.93999579,10.24767162,4.456415525,1.152605165,2.773610483,8.596353342,19.2363948,13.46477154,8.460968288,0.881583622,-7.479809499,-5.311569277,0.782486955,4.715710596,-4.487818691,11.14772271,5.935224821
16.63684342,13.94725648,16.26994458,8.04035866,3.652790716,1.478838683,2.831638044,7.529692418,15.54893318,11.73994299,7.400842044,-0.358898774,-7.368528826,-5.265528975,-0.76262826,2.786984134,-6.121507252,9.421133718,3.491365336
13.4508065,11.06210055,12.47580808,5.687832752,2.761123729,2.134936471,3.283275565,7.814074511,14.05058393,11.35967279,7.234299524,-0.869104264,-5.951910088,-4.039318576,-2.529899025,-0.228897019,-8.007814897,6.067233653,0.063732002
9.353644953,7.268121315,8.006535983,3.335752046,1.63568452,3.228135316,4.476831024,9.139180342,15.23447249,11.79039968,8.568020198,-0.325416374,-3.395629392,-2.211271286,-4.139191876,-4.274040763,-10.16764813,1.649372799,-3.447782261
4.70620545,2.884316185,3.273153166,0.683829963,0.110284032,4.572035557,6.278216026,10.40854026,17.77087072,11.75468571,10.78464254,1.102821295,-0.531989146,-0.483705277,-5.264323425,-8.633061774,-12.10110529,-2.691551591,-6.058060471
0.13214839,-1.332636124,-1.165128573,-2.456614417,-1.724078873,5.718467979,8.015314527,10.53937763,19.56493731,10.31428862,12.56061196,2.941680824,1.65568414,0.675655551,-5.705970616,-12.11951375,-12.99961051,-5.799472261,-7.093822704
-3.535618488,-4.390235697,-4.61144226,-5.72206491,-3.496749247,6.182076331,8.798935608,9.172929721,19.20175258,7.580796311,12.91442596,4.656587691,2.56855321,1.187323236,-5.512835534,-13.73625637,-12.29341856,-7.110100534,-6.461434693
-5.644548281,-5.62940344,-6.515379986,-8.263069704,-4.798069237,5.7370498,8.098377394,6.836770425,16.7765296,4.568843166,11.94746127,5.822577728,2.225402444,1.274918002,-5.024451935,-13.35969643,-10.12995421,-6.887330703,-4.637437734
-6.147281238,-5.213543216,-6.829126351,-9.286687005,-5.459777328,4.590565845,6.178898237,4.524658371,13.62750121,2.404327198,10.6931402,6.201845103,1.124448583,1.263494452,-4.719599034,-11.88784354,-7.376586455,-5.937933892,-2.392615546
-5.67451435,-4.092440471,-6.129255531,-8.661103889,-5.638186942,3.291788573,4.017059945,3.043434606,11.29085527,1.553621561,10.21585882,5.769466659,-0.096415141,1.410649153,-4.919379086,-10.65745445,-5.09043388,-5.035039512,-0.415664442
-5.138756332,-3.39984857,-5.349325198,-7.109289241,-5.655306662,2.405263212,2.670376205,2.570620607,10.49179965,1.634639507,10.71254587,4.707670649,-0.964738518,1.832554179,-5.559774739,-10.50941588,-3.826313724,-4.473902536,0.953957347
-5.139557353,-3.705476852,-5.251406675,-5.815784671,-5.759569424,2.153813012,2.529876943,2.659018403,10.8529026,1.856802491,11.36176144,3.346045395,-1.31153785,2.491295336,-6.237621716,-11.19371735,-3.302737097,-4.040373066,1.767123044
-5.606266945,-4.668334227,-5.962536855,-5.69506346,-6.005581444,2.28194531,3.032711824,2.606991399,11.40111728,1.660430631,11.0382296,2.030568919,-1.257499068,3.19394523,-6.525733524,-11.57825084,-2.678082919,-3.328543066,2.314051407
-5.920370468,-5.326987809,-6.875129105,-6.812178483,-6.310172705,2.251273778,3.085682746,1.910253993,11.37456458,1.047387778,9.283958518,0.965297681,-1.129644987,3.610086634,-6.319132141,-10.51961829,-1.216700932,-2.094108743,2.911043825
-5.383324048,-4.780383701,-6.986131561,-8.342329948,-6.574411122,1.641382553,1.889895364,0.524560602,10.69393445,0.418331702,6.712989729,0.124494323,-1.354833486,3.359360299,-5.928819518,-7.74648074,1.166087648,-0.369660006,3.741468435
-3.659009624,-2.754030819,-5.483411187,-9.091508456,-6.729394926,0.470254083,-0.469497935,-1.161676409,9.820993618,0.146858958,4.512290214,-0.687142803,-2.315577441,2.18638109,-5.838301475,-4.101051553,3.867508898,1.669952291,4.787283498
-0.901344224,0.306020752,-2.245237213,-8.235095314,-6.682264207,-0.800498271,-3.108379334,-2.563037168,9.246182469,0.286299605,3.478095365,-1.64503107,-4.156511458,0.147676608,-6.31802391,-0.982179238,6.035501912,3.875776467,5.827603467
2.429301607,3.577064203,2.025886195,-5.808559767,-6.271771717,-1.576921532,-4.986623289,-3.174931906,9.102530531,0.624502224,3.428594194,-2.707529633,-6.606196705,-2.323757648,-7.211624274,0.56588127,7.088946689,6.120842344,6.486490959
5.82620715,6.310997903,6.105629125,-2.668398523,-5.344762392,-1.523906254,-5.555138741,-2.75983574,9.216303262,0.970399101,3.505172988,-3.556749671,-8.949132602,-4.561690256,-8.060678572,0.440467046,6.921685494,8.138971769,6.346837578
8.854644974,8.077487807,8.818572003,0.010726127,-3.928620403,-0.746513522,-4.910585699,-1.398205652,9.471996875,1.367258286,3.088612386,-3.741481562,-10.25204444,-5.965686692,-8.450029501,-0.642353988,5.71493888,9.423537223,5.139489607
11.11590848,8.735955266,9.568750617,1.362366994,-2.339401601,0.353019681,-3.442046517,0.565954924,10.07909285,2.024543843,2.494834146,-2.951444441,-9.800016505,-6.28294295,-8.281503303,-1.805740829,3.629848338,9.380787032,2.94510782
12.21632547,8.303270568,8.550884516,1.203962625,-1.079779306,1.397512473,-1.405662926,2.634585972,11.4304223,3.035195021,2.782780494,-1.255569714,-7.5238329,-5.6969972,-7.765619019,-2.65303553,0.716804292,7.694924192,0.274305795
11.8731213,6.898598978,6.545883917,-0.011629627,-0.552900576,2.262397162,1.130979737,4.289811873,13.64146523,4.150976322,4.78484963,0.856127774,-4.139237424,-4.672560056,-7.175564555,-3.418375613,-2.877859883,4.630023742,-2.087303393
10.10671488,4.782299669,4.440379414,-1.562880266,-0.797185,3.040620502,3.965170927,5.143417722,16.19966894,4.852291489,8.193584969,2.679882911,-0.849315488,-3.666605311,-6.603899159,-4.58374127,-6.65137453,0.993472086,-3.443851967
7.330006713,2.361831959,2.763540403,-2.868928306,-1.460594629,3.819865177,6.48641053,5.083523535,18.11900546,4.705320554,11.55957248,3.661299673,1.273926948,-2.893621888,-5.932380884,-6.333934965,-9.758029047,-2.262684956,-3.571031656
4.200508663,0.06629343,1.509375366,-3.697850253,-2.051285058,4.510703754,7.883058298,4.366286954,18.5878673,3.749532202,13.3136086,3.717884419,1.881324572,-2.277414793,-5.012464891,-8.303759698,-11.38610991,-4.532869894,-2.866357522
1.30642135,-1.848819793,0.319621708,-4.111125964,-2.274637207,4.903159508,7.780067855,3.57718808,17.64507592,2.602658077,13.02708465,3.32395317,1.535404518,-1.585833935,-3.863766107,-9.797280774,-11.24221573,-5.792573899,-2.14442764
-1.082789453,-3.394231388,-1.135343894,-4.266555283,-2.193743638,4.89964834,6.749239664,3.416369399,16.31068771,2.154743094,11.84427663,3.272636783,1.341370484,-0.633245688,-2.702026911,-10.27934295,-9.750924809,-6.433350256,-2.185412901
-3.014371416,-4.732317802,-2.860619224,-4.264230851,-2.09964399,4.686239254,6.108275241,4.355558156,15.96437985,3.014724264,11.64008529,4.207891594,2.214460973,0.580605509,-1.788106622,-9.754117269,-7.783524154,-6.86973382,-3.313108932
-4.625099888,-5.941621518,-4.526627602,-4.137031278,-2.220791199,4.640547209,6.985466422,6.324859952,17.34733661,5.064224047,13.49890844,6.173971251,4.231102926,1.857929572,-1.261871183,-8.765793001,-6.105690111,-7.245584232,-5.25412497
-5.904170171,-6.872748464,-5.721083927,-3.943203816,-2.52627625,5.013742291,9.319265036,8.632479679,19.90855081,7.429416009,16.71523627,8.463125216,6.488882632,2.892873869,-1.122207062,-8.049587012,-4.957997453,-7.442434539,-7.332187295
-6.654019118,-7.235656552,-6.242732087,-3.832819427,-2.778055545,5.655590877,11.65318068,10.23473981,22.02782195,8.928323861,19.15845852,9.906236232,7.595666236,3.397520619,-1.346531236,-8.090048658,-4.06498273,-7.311953808,-8.834901677
-6.663736591,-6.844749133,-6.198329117,-3.99373665,-2.758501949,6.055647754,12.03482833,10.27481628,22.03439166,8.74911612,18.78405352,9.495838173,6.506276623,3.206742723,-1.98535179,-8.86213475,-3.014275057,-6.872059863,-9.314274821
-5.912332839,-5.792684461,-5.836134394,-4.499057235,-2.449743751,5.722563118,9.437700705,8.609364633,19.34806182,6.955712061,15.15895652,7.00106254,3.189347911,2.334916861,-3.086930529,-9.871311186,-1.660912552,-6.274127347,-8.682701745
-4.59910097,-4.379262221,-5.269800039,-5.176875632,-2.003145779,4.619384621,4.634162498,5.989241175,14.94728631,4.503290523,9.842100523,3.190781064,-1.297702555,0.977083437,-4.494856028,-10.41781627,-0.228049855,-5.588122791,-7.135859762
-2.968895567,-2.845252795,-4.334927311,-5.62281713,-1.547516371,3.283334932,-0.19571171,3.726493621,10.82222881,2.732255393,5.345409159,-0.512847716,-5.374358821,-0.545987982,-5.732837195,-9.913102188,0.938586941,-4.634352528,-5.026771064
-1.097727379,-1.148605919,-2.705095965,-5.37605362,-1.043347333,2.483451674,-2.880771077,2.989349433,8.776679062,2.625986414,3.483240694,-2.777994344,-7.785358055,-1.888157747,-6.161206151,-8.098762656,1.707846815,-3.049209271,-2.775680143
1.155716525,1.004244218,-0.174047678,-4.158438648,-0.346398397,2.641989593,-2.668401872,4.12497679,9.388061092,4.270635158,4.339313606,-3.062815489,-8.205844392,-2.79118006,-5.358589931,-5.104088926,2.280645614,-0.553603428,-0.801700383
3.977731212,3.878977321,3.126841223,-2.027810025,0.564276884,3.461207835,-0.60339169,6.429134026,11.80097066,6.841134588,6.533276262,-1.839432144,-7.258705602,-3.163248196,-3.451619146,-1.361556421,2.990549555,2.795822199,0.577093863
7.349377,7.41031271,6.745819556,0.643463411,1.416071663,4.06690296,1.346357262,8.524254932,14.42709854,9.115685547,8.433831021,-0.213554475,-5.99809647,-3.088624261,-1.109815109,2.550735029,3.971884355,6.577747269,1.266546638
10.92472435,11.11945487,10.12949196,3.332682442,1.726003248,3.593659305,1.697167401,9.128617697,16.00182307,10.18848529,9.288581621,0.789448151,-5.248381883,-2.773345474,0.825101172,6.056796821,4.983918533,10.20590584,1.447002862
14.12371623,14.30526224,12.84408948,5.552561244,1.114065013,1.796293296,0.332608892,7.75093651,16.2516213,9.925157765,9.433030047,0.786058715,-5.232107242,-2.46584683,1.802671663,8.659713394,5.532375777,13.17069692,1.45971505
16.34513065,16.33959473,14.61913942,6.945017436,-0.395852724,-0.753221648,-1.698800637,4.898266526,15.77244348,8.880341351,9.578851862,0.085671969,-5.663653324,-2.38998576,1.76348746,9.943205106,5.177870662,15.12699531,1.559980224
17.13455415,16.84433807,15.21913709,7.26242657,-2.347195198,-3.015960485,-3.154850616,1.704820244,15.32192447,7.7650892,9.932173042,-0.745344965,-6.13529176,-2.69605904,0.944489334,9.559380836,3.786677064,15.80930181,1.709003947
16.23425118,15.67958868,14.33135815,6.316123109,-4.140194192,-4.11924217,-3.49082168,-0.74499248,15.13159505,6.864278443,9.947571051,-1.428679034,-6.444164044,-3.411404888,-0.49327425,7.288548145,1.560505221,14.94237262,1.590396268
13.58478205,12.86839513,11.66291791,3.997325813,-5.419035001,-3.828141087,-3.020552486,-1.960822824,14.76798401,5.837595477,8.893528241,-2.187542024,-6.620895508,-4.388919614,-2.637227399,3.199344026,-1.119390547,12.32672003,0.877057971
9.383708545,8.624008513,7.247030337,0.403404701,-6.248506359,-2.567308138,-2.384044429,-2.152043255,13.60534493,4.057867384,6.67127458,-3.463878607,-6.709760599,-5.296381298,-5.603019811,-2.177555591,-3.868974415,8.094367221,-0.444096148
4.193329829,3.488988648,1.728094224,-4.011920882,-6.944418228,-1.051554974,-1.912760343,-1.90505908,11.49199052,1.240350843,4.12112982,-5.378484766,-6.56846125,-5.707258333,-9.108664663,-7.828139595,-6.373304565,2.920519219,-1.96616554
-1.049546461,-1.596997109,-3.66225701,-8.409415253,-7.711110476,0.159749321,-1.461383804,-1.711126862,9.058597549,-2.113951609,2.515398899,-7.393780419,-5.922517114,-5.301145731,-12.26976106,-12.50342004,-8.368218033,-2.053730634,-3.103012029
-5.265410084,-5.500539735,-7.534539964,-11.75392785,-8.39854759,0.882237254,-0.765554929,-1.670008479,7.410985853,-4.822685537,2.644480865,-8.50112319,-4.658571997,-4.080962749,-13.9071951,-15.17913035,-9.636202494,-5.63372019,-3.522512112
-7.665727222,-7.357611052,-8.965978388,-13.18297407,-8.585191506,1.227793402,0.111794973,-1.519587754,7.427944684,-5.649294044,4.242883555,-7.854944829,-3.091322305,-2.44981717,-13.2346209,-15.48628921,-10.07608532,-7.093605074,-3.432773285
-8.134878386,-7.020061864,-7.930922251,-12.37762747,-7.913717368,1.387311634,0.726475368,-0.899725441,9.179067448,-4.047475287,6.207469098,-5.413580608,-1.913453503,-1.042606093,-10.43049566,-13.83908895,-9.787840269,-6.471141141,-3.464119451
-7.271717659,-5.142651865,-5.250487724,-9.722499245,-6.394502212,1.486137853,0.660477924,0.372001222,11.87758388,-0.521799115,7.409568034,-2.099868411,-1.77740507,-0.36884323,-6.621977128,-11.15943653,-9.057685561,-4.445221109,-4.196034879
-6.015834098,-2.795462425,-2.094092817,-6.142741696,-4.425609428,1.589712041,-0.002018805,2.186292953,14.38249918,3.636304339,7.44994451,0.687553451,-2.77877575,-0.483863707,-3.229786355,-8.366979266,-8.204438267,-1.89975896,-5.671276671
-5.092015892,-0.843053079,0.635762002,-2.689435147,-2.522757492,1.7713098,-0.608156767,4.20976129,15.87387153,7.051967862,6.801807693,1.919118316,-4.248446168,-0.929327716,-1.120241641,-5.966099168,-7.387049788,0.517922953,-7.276715769
-4.652376363,0.479025334,2.64822323,-0.094869152,-0.993826649,2.112826853,-0.397993341,6.03225856,16.23028415,8.941824172,6.307084472,1.567994064,-5.080252006,-1.023558798,-0.179038276,-3.982851556,-6.534596506,2.573650108,-8.107772
-4.344989057,1.507549415,4.17043582,1.463431555,0.175730426,2.613345013,0.860541975,7.284825939,15.88923133,9.348961674,6.480242174,0.58422584,-4.436458379,-0.335034216,0.389107331,-2.238534692,-5.470699933,4.316995192,-7.56868329
-3.707275405,2.704601318,5.564653915,2.281357891,1.157051002,3.108456157,2.586837284,7.699360527,15.36170641,8.862015067,7.15267675,0.202972799,-2.367465606,0.980245904,1.285232094,-0.699453286,-4.135801183,5.827799302,-5.779112152
-2.546025689,4.202146205,6.978850674,2.81545361,2.008876283,3.319786796,3.702886116,7.152628848,14.80458588,8.09630085,7.654772766,1.044477588,0.104764265,2.227273504,2.478165698,0.391276956,-2.716533632,7.064729309,-3.50083275
-1.018185863,5.693515849,8.269521511,3.355723743,2.562716163,3.037580061,3.326200586,5.729313415,13.96695977,7.329679195,7.307669691,2.625219886,1.54660794,2.598157932,3.200623468,0.693469178,-1.56368433,7.902068543,-1.652276113
0.589282135,6.714872331,9.186409808,3.883788414,2.56739867,2.300352439,1.338833369,3.767603716,12.50618985,6.501565671,5.825466297,3.636322462,0.982085887,1.700937144,2.573723863,0.089583596,-0.960109661,8.262840782,-0.768025403
2.123003448,7.034764777,9.60629467,4.168567583,1.95395138,1.410546964,-1.551441129,1.799731317,10.37390582,5.470717945,3.389354557,2.824717805,-1.489956067,-0.164333113,0.36152663,-1.139240506,-0.928632722,8.19558586,-0.770365859
3.605949924,6.805783866,9.600454972,3.982936541,0.964383409,0.746939984,-4.258701778,0.339431973,7.928731,4.241216736,0.445432347,-0.113517817,-4.741826788,-2.169938104,-2.742272071,-2.438930874,-1.233400962,7.829152131,-1.162535451
5.035107821,6.368248849,9.296911614,3.257156367,0.003074199,0.502279243,-5.944738956,-0.412121749,5.667483273,2.942441484,-2.561045123,-4.250186826,-7.307097375,-3.455898773,-5.528440123,-3.31846973,-1.561520616,7.270443491,-1.443930742
6.166153574,5.911003845,8.690120052,2.06324575,-0.68214907,0.543805784,-6.436859272,-0.761941086,3.790507768,1.604528981,-5.353538011,-7.973482552,-8.276328609,-3.630635478,-7.08022295,-3.639929461,-1.725854158,6.556054282,-1.422594453
6.546100292,5.309606051,7.595071354,0.481365545,-1.217446787,0.504907141,-6.245961762,-1.446237113,1.972721644,-0.019468735,-7.873269506,-10.01530381,-7.829716196,-2.961704715,-7.370025143,-3.653473069,-1.731840762,5.698218879,-1.231136374
5.823845541,4.286111499,5.811103786,-1.494719195,-2.012833388,0.042468938,-6.242739153,-3.244099301,-0.427801643,-2.350521473,-10.25490749,-10.25385031,-7.076599257,-2.159023138,-7.203299845,-3.773082517,-1.689222142,4.761460452,-1.105557237
4.088831365,2.736524446,3.372119612,-3.891209525,-3.405495886,-0.923047776,-7.187475672,-6.456314107,-3.827954121,-5.60068048,-12.73664055,-9.72038098,-7.315064861,-1.916852534,-7.559225965,-4.275689516,-1.688176372,3.876100268,-1.151127093
1.923302945,0.922111407,0.674255412,-6.557428796,-5.303235793,-2.143108204,-9.316092431,-10.55222678,-7.928097742,-9.375905594,-15.47950199,-9.786331423,-9.183941246,-2.513566227,-8.821672452,-5.133563021,-1.76950778,3.164436509,-1.282064803
0.07777208,-0.65253883,-1.642072983,-9.01389667,-7.112793992,-3.177215279,-12.14057723,-14.24033718,-11.66015775,-12.60585827,-18.33935929,-11.09840226,-12.23301573,-3.699427746,-10.46567506,-6.061000516,-1.998828967,2.65004468,-1.344219917
-0.996772281,-1.570912487,-2.993833485,-10.52846465,-8.031862417,-3.625157148,-14.57211968,-15.99882379,-13.67854333,-13.95167266,-20.75564983,-13.03785474,-15.16662354,-4.902457055,-11.42438714,-6.697637866,-2.529972787,2.243802938,-1.276938408
-1.389594283,-1.761308207,-3.141845562,-10.44832832,-7.515997545,-3.315235993,-15.38411531,-14.82944635,-13.11809642,-12.51212738,-21.93463846,-14.130802,-16.60200386,-5.593821321,-10.86837959,-6.787142514,-3.542274915,1.829694116,-1.162335803
-1.552363584,-1.470699527,-2.276020788,-8.605421199,-5.607803667,-2.36684842,-13.86272317,-10.83645486,-10.14179882,-8.412291816,-21.32080936,-13.1528985,-15.88279212,-5.587372822,-8.839321619,-6.262152598,-5.066706662,1.379932902,-1.131666614
-1.85748148,-1.001404149,-0.857813202,-5.513461976,-2.920757489,-1.129075684,-10.31413422,-5.290180393,-5.922526417,-2.88935409,-19.07912082,-10.14071207,-13.47115029,-5.118033307,-6.289549849,-5.235076785,-6.851653641,1.003179481,-1.229209448
-2.264075773,-0.455377656,0.659660746,-2.180953574,-0.311231556,-0.041503536,-6.073635569,-0.096251374,-2.063367975,2.222989581,-16.20035155,-6.546480473,-10.70227579,-4.683808187,-4.496941645,-3.935182192,-8.420544943,0.892640371,-1.362832508
-2.364675591,0.297494941,2.04917224,0.38361837,1.534724395,0.534987276,-2.898524696,3.083168093,0.189821697,5.350529853,-14.04775734,-4.364646239,-9.055689341,-4.758300858,-4.252606108,-2.616445728,-9.322269402,1.226852147,-1.385384905
-1.759293879,1.42761494,3.345676334,1.677795276,2.355923169,0.472792378,-2.026425834,3.60462832,0.484230081,5.908189159,-13.57376769,-4.804792065,-9.361316222,-5.529845045,-5.366122451,-1.445197177,-9.399845736,2.101317973,-1.235849627
-0.431245233,2.930097408,4.714877458,1.902157554,2.309328337,-0.041661657,-3.462419022,2.102112251,-0.625423695,4.507281473,-14.72853517,-7.438163034,-11.37429462,-6.79373965,-6.810361128,-0.404136908,-8.865218631,3.516979174,-1.020994357
1.19074233,4.587649158,6.267642108,1.727138042,1.773326948,-0.565412359,-5.97342483,0.085736398,-2.120150072,2.54010077,-16.49268049,-10.42968726,-13.92945542,-8.042518982,-7.39692358,0.711160148,-8.114249485,5.385643671,-0.967751708
2.526466402,6.129891862,7.942496443,1.793135573,1.116126328,-0.610845963,-7.826881775,-0.907530194,-3.108040033,1.382823403,-17.53122417,-11.70324865,-15.56501108,-8.704537737,-6.527617315,2.14879363,-7.42751597,7.508212638,-1.274643339
3.243005744,7.417958741,9.510371622,2.278000251,0.549698427,0.072410738,-7.812660744,-0.15459963,-3.23432252,1.653398566,-17.016489,-10.2347855,-15.2674744,-8.412226375,-4.534035871,3.962244942,-6.797273572,9.543951315,-1.960388749
3.440154447,8.468414362,10.6733064,2.8067312,0.099832026,1.312437859,-5.90069672,1.874558778,-2.751664168,2.91575168,-15.06223371,-6.605677294,-12.95535483,-7.168976076,-2.408728522,5.843776535,-6.014083418,11.04450606,-2.806980741
3.503776953,9.299586826,11.18730425,2.739180615,-0.341045761,2.571070681,-3.152306696,3.801601202,-2.300587546,3.974094684,-12.52826124,-2.510223195,-9.484577525,-5.337188205,-1.142619078,7.196824387,-4.927657155,11.59885869,-3.435722128
3.784657573,9.770060499,10.95040958,1.624764054,-0.921526645,3.240854843,-1.015336575,4.130032982,-2.560993422,3.588088193,-10.42573415,0.342949113,-6.214429636,-3.464946321,-1.132765077,7.458196076,-3.652135009,11.03217277,-3.480987921
4.374428241,9.599983571,10.03268017,-0.477088126,-1.729542549,3.007009026,-0.508633245,2.108014321,-3.928195757,1.219088781,-9.394999454,1.129169304,-4.37743594,-2.051871699,-2.046277199,6.470209931,-2.537633886,9.518087041,-2.775376901
5.123911541,8.594215887,8.651590792,-3.002868723,-2.713864178,2.030138871,-1.788107767,-1.81085534,-6.312879719,-2.603530058,-9.571106772,0.059368515,-4.557266635,-1.375279947,-3.184331519,4.619960726,-1.929511217,7.495806989,-1.449234523
5.82106486,6.879576627,7.103850423,-5.194486828,-3.675829009,0.8157773,-4.251682894,-6.170476367,-9.131235901,-6.516094232,-10.77741332,-2.128629655,-6.491963545,-1.445163361,-4.034611172,2.608122137,-1.912329784,5.425490707,0.118747059
6.32935827,4.923931207,5.666281805,-6.515731471,-4.36567353,-0.141818282,-6.981036227,-9.284664583,-11.52858612,-9.057605616,-12.74549671,-4.779725877,-9.253130621,-2.071828038,-4.589014427,0.992491272,-2.242038548,3.552367171,1.4911839
6.573425289,3.276519951,4.490431319,-6.940913971,-4.654484284,-0.686747277,-9.193252605,-10.17083732,-12.80564859,-9.524279569,-15.1475572,-7.524552197,-11.69208715,-2.975690861,-5.212781283,-0.155344498,-2.511537188,1.854424959,2.408400333
6.441788861,2.212974684,3.535011294,-6.971667243,-4.673425973,-1.064228076,-10.50338412,-9.130781638,-12.87645049,-8.453001567,-17.51747517,-10.04850399,-12.95099973,-3.878164362,-6.216390498,-1.213572795,-2.412724169,0.202556014,2.9290749
5.767448422,1.568724832,2.584631235,-7.382240822,-4.791908597,-1.681031463,-10.99055522,-7.63140246,-12.47313889,-7.409466431,-19.31058219,-11.84769523,-12.82865669,-4.562821648,-7.516821189,-2.6248373,-1.901749871,-1.415043607,3.367785713
4.457964113,0.90509209,1.371962101,-8.814791108,-5.392770887,-2.750466864,-11.13250023,-7.506184229,-12.86702609,-8.131541608,-20.21581012,-12.39401996,-11.85558507,-4.930578796,-8.692451118,-4.477996428,-1.174426164,-2.804765914,4.04394542
2.670988376,-0.114945643,-0.240682997,-11.40667878,-6.555907438,-4.089095756,-11.62204433,-9.882643964,-15.14478178,-11.47125747,-20.51245224,-11.68290641,-11.04737544,-5.055537398,-9.397993993,-6.402755381,-0.513335851,-3.69327655,4.996725661
0.849286721,-1.435706576,-2.118423078,-14.62605062,-7.868988982,-5.210284063,-13.04805034,-14.43015788,-19.42207793,-16.75211629,-21.0905445,-10.65585924,-11.43486784,-5.200437816,-9.783520884,-7.862346125,-0.143320991,-3.952397556,5.873217954
-0.468349869,-2.629146561,-3.849378166,-17.42094569,-8.543203911,-5.635577527,-15.51740623,-19.38801943,-24.52938486,-21.97255431,-22.94957257,-10.94809265,-13.56994909,-5.732467915,-10.52404546,-8.591990146,-0.18117326,-3.71919883,6.100843743
-0.945506913,-3.204779739,-4.910658651,-18.65661676,-7.823657698,-5.192884123,-18.43956256,-22.41807879,-28.48451457,-24.81086379,-26.43221233,-13.91136244,-17.22815033,-6.931445199,-12.36123849,-8.803696253,-0.658478505,-3.301957461,5.25782389
-0.631246809,-2.963940436,-4.931014294,-17.66181394,-5.468389055,-4.099012857,-20.70131896,-21.84642184,-29.56009807,-23.89065596,-30.7559177,-19.51801004,-21.45025133,-8.776678439,-15.46321848,-8.974813281,-1.541854455,-2.955398266,3.396938704
0.111554651,-2.131705283,-3.900747199,-14.60684284,-1.986805396,-2.796017656,-21.23239892,-17.59926604,-27.30245248,-19.56698266,-34.27027006,-25.99782668,-24.91136694,-10.85635157,-19.09693903,-9.395747651,-2.714021517,-2.722881681,1.087071028
0.865038753,-1.184702434,-2.193251271,-10.47949168,1.544379509,-1.683813588,-19.64281591,-11.2813528,-22.81954222,-13.74819984,-35.35336387,-30.62822946,-26.45207984,-12.49814051,-21.91374356,-9.866544299,-3.955799509,-2.474531538,-0.876476628
1.390968047,-0.524328336,-0.370217326,-6.626077804,4.004205346,-0.938497703,-16.48495333,-5.334851636,-18.11278927,-8.845546954,-33.36670836,-31.27293203,-25.53428628,-13.0841032,-22.70530242,-9.816509869,-4.993530043,-2.084943344,-1.909370998
1.674292,-0.240906521,1.118714481,-4.086108615,4.781553644,-0.511015865,-12.9208754,-1.766237972,-14.88313355,-6.481728416,-29.02211687,-27.67296913,-22.43125985,-12.37864917,-21.13029467,-8.769659411,-5.61843087,-1.568506234,-1.936633373
1.792067476,-0.118780427,2.154917446,-3.100106853,4.027198604,-0.257807033,-10.01706345,-1.188295222,-13.61570967,-6.734501162,-23.93830183,-21.61179841,-18.0937177,-10.66919517,-17.9176809,-6.786463837,-5.802400794,-1.044618098,-1.370360162
1.771228369,0.156463141,2.947135493,-3.087063715,2.465900574,-0.078310783,-8.184769755,-2.716290729,-13.54368565,-8.336302961,-19.73945225,-15.8386016,-13.77355382,-8.626195428,-14.41792139,-4.523666348,-5.715336439,-0.586090024,-0.814279998
1.576383926,0.755988927,3.808862193,-3.101021048,0.912003076,0.03348778,-7.165776208,-4.710886402,-13.44685906,-9.63039067,-17.31954092,-12.47970396,-10.56737493,-6.962540582,-11.8219478,-2.856577682,-5.618990606,-0.132161082,-0.716961401
1.210193269,1.586837023,4.868381591,-2.470165171,-0.19283466,0.025121195,-6.509854,-5.83825,-12.63892291,-9.618492937,-16.67996888,-11.97806765,-9.046279554,-6.092347653,-10.568146,-2.348869037,-5.711012574,0.411697015,-1.189179377
0.778620761,2.338023191,5.91004842,-1.210512975,-0.944776858,-0.153541473,-6.084706172,-5.76801722,-11.39982691,-8.436606715,-17.26955239,-13.17444237,-9.093090962,-5.977467813,-10.28209394,-2.958198317,-6.030038356,0.964630106,-2.042447503
0.406502867,2.63332309,6.455344434,0.028789601,-1.788863758,-0.521112235,-6.159539947,-5.136641594,-10.58543722,-7.04227859,-18.4319645,-14.3333498,-10.00391614,-6.224623938,-10.20302445,-4.164139688,-6.476041527,1.174887184,-2.943827874
0.05687283,2.195776957,6.027660405,0.409899723,-3.149394602,-1.071679958,-7.015160505,-4.927603586,-10.81012952,-6.449578279,-19.63324024,-14.32851746,-10.83357008,-6.349667827,-9.748108085,-5.380692001,-6.904750411,0.592507002,-3.548896964
-0.558150286,0.956303061,4.423178882,-0.583213386,-5.138878576,-1.78439887,-8.488222427,-5.778026763,-11.91474941,-7.105242307,-20.46633327,-13.22135808,-10.8694926,-6.050267834,-8.850033564,-6.333049687,-7.208522006,-0.979614596,-3.569763953
-1.83335594,-0.921283197,1.81737266,-2.891719843,-7.506117197,-2.611117071,-9.934603832,-7.675919903,-13.15348822,-8.798501379,-20.66023047,-11.99365211,-10.02948951,-5.352684592,-7.930846383,-7.158076752,-7.333915395,-3.246864407,-2.836669288
-3.956187825,-3.10166442,-1.338336524,-5.988249176,-9.79620207,-3.455321249,-10.709959,-10.14400488,-13.900858,-11.03106578,-20.23637187,-11.78143673,-8.959009166,-4.582486403,-7.628982086,-8.225018977,-7.259987852,-5.538167611,-1.403372793
-6.665311903,-5.206310944,-4.530446068,-9.189223035,-11.56571112,-4.177692166,-10.75700308,-12.63381313,-14.22937216,-13.42965094,-19.67181977,-13.18545036,-8.714631442,-4.192543651,-8.489157349,-9.854705335,-6.991669506,-7.229062792,0.362749312
-9.303565553,-6.953790189,-7.352142546,-11.92487922,-12.50890728,-4.645460185,-10.73417976,-14.76854244,-14.82272675,-15.82825461,-19.77832902,-16.02814375,-10.14649387,-4.530916154,-10.74446797,-12.117402,-6.581654839,-8.139701202,1.844805542
-11.16119863,-8.229796258,-9.537315667,-13.82889801,-12.46819402,-4.802122505,-11.49219778,-16.30433152,-16.27475695,-18.01422697,-21.19845805,-19.54479433,-13.31132052,-5.647450028,-14.20289194,-14.76687837,-6.134405127,-8.55905791,2.463132908
-11.86273936,-9.030052197,-10.8941972,-14.69791877,-11.4086873,-4.710008357,-13.29659885,-16.98596561,-18.3832839,-19.48220561,-23.8134754,-22.75825431,-17.29430557,-7.229383596,-18.22329408,-17.27100581,-5.743696868,-8.848635572,2.056555634
-11.50617274,-9.308828815,-11.24890659,-14.46200764,-9.440328498,-4.532706598,-15.47417797,-16.56422525,-20.09333996,-19.55262029,-26.57103651,-24.81139684,-20.612148,-8.716613211,-21.82030652,-18.90883121,-5.386812834,-8.956577787,1.079255002
-10.46380758,-8.859809827,-10.47768068,-13.23323128,-6.879461378,-4.463976201,-16.84697979,-15.03831121,-20.21580379,-17.86317912,-28.00815538,-25.18819477,-22.00752289,-9.56823953,-23.95426816,-18.95941284,-4.873887737,-8.289665871,0.399995234
-9.031005742,-7.361286357,-8.603009386,-11.35500787,-4.251959201,-4.641513244,-16.6496376,-12.89030498,-18.37521983,-14.83646163,-27.19689311,-23.84461915,-21.16329782,-9.556409115,-23.95760443,-16.98980705,-3.939331637,-6.114060981,0.769254584
-7.222498922,-4.598640706,-5.850206695,-9.319326197,-2.149205703,-5.086809276,-15.17747696,-10.99142241,-15.39497825,-11.64268181,-24.42839729,-21.23215939,-18.87726202,-8.913374618,-21.88629108,-13.13193565,-2.448987181,-2.196797355,2.304240716
-4.87005249,-0.712457868,-2.580641638,-7.522818624,-0.965011587,-5.692351289,-13.5939564,-10.10370502,-12.74142636,-9.534875358,-21.06566769,-18.14011449,-16.56696303,-8.213021391,-18.53446646,-8.139204712,-0.57341423,2.847955583,4.380492397
-1.903532902,3.74457438,0.877961614,-6.006811231,-0.671527752,-6.25534257,-13.01131788,-10.28860481,-11.40752017,-8.970311825,-18.60301912,-15.34187857,-15.4094769,-8.023746702,-15.02084018,-3.084814574,1.233262845,7.842730417,6.041104394
1.456366117,8.040171885,4.384823165,-4.400537577,-0.814462563,-6.545497458,-13.57704124,-10.71571592,-11.10600982,-9.196040236,-17.6040102,-13.19636253,-15.66056228,-8.533335426,-12.16096331,1.185792426,2.473413921,11.78532525,6.638191179
4.768013691,11.65099651,7.998629746,-2.167756757,-0.780046481,-6.389072175,-14.31951705,-10.13400866,-10.44597396,-8.70442616,-17.32405288,-11.46776207,-16.57024242,-9.394062191,-10.03901145,4.493016769,2.906928473,14.46856676,6.227448475
7.623844477,14.51838284,11.82485025,0.976284911,-0.190005531,-5.743552925,-13.8985061,-7.763252499,-8.01606545,-6.321343672,-16.32130991,-9.533476832,-16.90936306,-9.910674597,-8.091837366,7.300434449,2.685333052,16.47308206,5.421494033
9.843675277,16.9543973,15.80123917,4.766761842,0.834032529,-4.730408292,-11.67220334,-3.981607876,-3.57688842,-2.165390863,-13.60302298,-6.878771534,-15.73267284,-9.466491493,-5.65581383,10.19263893,2.208765184,18.52493075,4.837160764
11.42995415,19.24971191,19.57867781,8.437790013,1.728631084,-3.601036197,-8.241895803,-0.26113993,1.554251923,2.256135024,-9.443389443,-3.538924407,-12.89552488,-7.913872147,-2.573493768,13.22063564,1.814461256,20.74011446,4.597109879
12.34947413,21.28874042,22.59070346,11.10227257,1.847316795,-2.640525438,-5.065047431,1.680659489,5.257203912,4.951685655,-5.267903393,-0.160117162,-9.061139074,-5.674288756,0.597820392,15.63902232,1.542517924,22.38842184,4.291422294
12.38477082,22.49407948,24.27246945,12.21090045,0.887745988,-2.050644075,-3.46579441,0.966000134,5.989125427,4.753686586,-2.713328677,2.373897975,-5.290721362,-3.492656648,2.928611354,16.2931591,1.158276784,22.38900464,3.408765163
11.23659097,22.16416223,24.28805418,11.79117979,-0.897299035,-1.86953038,-3.806261747,-1.863628299,3.820015012,2.120250129,-2.572422037,3.474996907,-2.532851901,-2.024589857,3.734018049,14.39998136,0.392703811,20.1363248,1.841722635
8.805317967,19.93593771,22.62545139,10.33848103,-2.842954482,-1.965023751,-5.384663282,-5.16746868,0.413507031,-1.128203583,-4.363298129,3.158173749,-1.292387333,-1.531160594,2.980855293,10.11624327,-0.82038134,15.96155311,0.00658576
5.373857536,15.98245178,19.51356934,8.475489455,-4.26711709,-2.09557065,-7.012147024,-7.188738227,-1.996535143,-2.940925107,-6.743903524,1.931765551,-1.553461436,-1.850205489,1.186421617,4.418104318,-2.318189621,10.82173384,-1.541619656
1.468493783,10.7677926,15.23252871,6.624520543,-4.853216725,-2.000791947,-7.730882118,-7.025875203,-1.903862305,-2.247824854,-8.370354696,0.409731434,-2.860432983,-2.600474464,-1.064130072,-1.640936818,-3.903436675,5.455814898,-2.660113456
-2.534892042,4.570225978,9.949927602,4.87261915,-4.782946714,-1.485014055,-7.153682318,-4.981767606,0.743420677,0.542707726,-8.559293212,-1.025349618,-4.452485327,-3.426172137,-3.545607844,-7.696822639,-5.561322999,-0.278342863,-3.821692808
-6.718475339,-2.77851221,3.691936251,3.03917243,-4.563035441,-0.480434172,-5.34016277,-2.165420475,4.756604385,3.995886056,-7.388547085,-2.277703467,-5.450324988,-4.111247232,-6.394885343,-14.20247802,-7.472526793,-7.274294294,-5.73318002
-11.5141145,-11.62835538,-3.524849492,0.835785073,-4.688720117,0.909518647,-2.534405743,0.269025789,8.567291514,6.623216907,-5.362667899,-3.357859694,-5.147779726,-4.543969025,-9.700218911,-21.74122291,-9.778021652,-16.26328977,-8.639685561
-17.17538104,-21.84473219,-11.46649648,-1.981874219,-5.365087072,2.398740279,0.893168171,1.698314001,11.08400797,7.665019259,-3.050269975,-4.210621525,-3.372111991,-4.648219999,-13.06640559,-30.03043453,-12.28714899,-26.77798813,-11.89306857
-23.21290439,-32.25317629,-19.4851795,-5.487508357,-6.431735378,3.570710087,4.295346683,2.12402758,12.04011584,7.234375633,-0.976845994,-4.746011135,-0.720058568,-4.400524906,-15.58940272,-37.44175068,-14.39889368,-36.81756992,-14.1925721
-28.28496219,-40.71631367,-26.4858016,-9.462614589,-7.486095637,4.014320964,6.70081942,1.89122209,11.78193415,5.910330969,0.289137628,-5.032746507,1.566439204,-3.931170666,-16.34190665,-41.54128804,-15.3501661,-43.56871325,-14.37792231
-30.73893927,-44.94954825,-31.13620673,-13.3163896,-8.093065735,3.506469864,7.13510661,1.358307006,10.81876531,4.231961193,0.133859182,-5.424735679,2.14263698,-3.587122659,-15.03283757,-40.40396224,-14.64041799,-44.78576358,-12.19896013
-29.50620024,-43.63629775,-32.29406288,-16.15823644,-7.962861381,2.141837832,5.195661952,0.750843427,9.500496035,2.485956686,-1.853709044,-6.429902048,0.274252911,-3.835267539,-12.32246882,-33.8454568,-12.33153927,-39.96249843,-8.481895692
-24.75125534,-37.14211626,-29.49331147,-17.10333193,-7.04341783,0.306813364,1.429457248,0.180492853,7.959646369,0.823222887,-5.523069345,-8.364794857,-3.714910032,-5.015084096,-9.507600609,-23.71621312,-9.012023514,-30.57320153,-4.571769596
-17.81748779,-27.35911333,-23.2475877,-15.72517429,-5.532438032,-1.519718604,-2.876329146,-0.333531226,6.208670144,-0.56222719,-10.02472015,-11.05405905,-8.582387578,-7.09666189,-7.759672992,-13.02409944,-5.467550905,-19.28907517,-1.482526753
-10.49997338,-16.77636418,-14.96253896,-12.38836526,-3.823828687,-3.02888568,-6.426996087,-0.920897752,4.224956152,-1.449112919,-14.10501648,-13.83248456,-12.83961821,-9.628714888,-7.437193341,-4.438836386,-2.305747787,-8.714409186,0.614338483
-4.139928454,-7.36057472,-6.426250138,-8.182454005,-2.386749423,-4.230070371,-8.657443956,-1.8918966,1.975682497,-1.787664606,-16.70618092,-15.8837535,-15.53499772,-11.93673346,-7.942884594,0.886010419,0.219867505,-0.399696063,2.233124444
0.873290382,0.096718696,0.908793885,-4.404216062,-1.585748274,-5.37035898,-9.915992868,-3.586478776,-0.541418932,-1.830374361,-17.48359864,-16.69226018,-16.6472059,-13.45047301,-8.202327025,3.507934169,2.130423547,5.408641918,3.95830755
4.938268293,5.875371088,6.479091902,-1.865594711,-1.503885453,-6.675095291,-10.97584877,-6.047710987,-3.183063671,-1.979044295,-16.89625523,-16.3037481,-16.87058826,-13.94863064,-7.408291725,4.929725142,3.530303835,9.347109611,5.908360295
8.640358172,10.68667573,10.68025681,-0.48030169,-1.87936976,-8.103417579,-12.30385757,-8.764770503,-5.54677087,-2.415262716,-15.8361179,-15.24025836,-17.00397118,-13.57772542,-5.518792014,6.489657006,4.492532603,12.26876538,7.686490602
12.19731484,15.00486058,14.40420495,0.566200636,-2.239945658,-9.314698786,-13.69893183,-10.78521437,-7.022379361,-2.83996154,-15.07976584,-14.15852418,-17.40520337,-12.6703141,-3.207339128,8.633372693,5.08547509,14.75671248,8.778983532
15.31063526,18.77853326,18.32091667,2.154668071,-2.201415242,-9.885801056,-14.56981402,-11.25360794,-7.086415564,-2.617883814,-14.92372739,-13.48587824,-17.86698302,-11.51779773,-1.359406644,10.91414102,5.448048763,16.98013733,8.997055858
17.42006138,21.58210424,22.348905,4.527794422,-1.759594605,-9.619572494,-14.55613646,-10.05778352,-5.699635702,-1.296856147,-15.17356415,-13.23095362,-17.91313265,-10.25067192,-0.496541864,12.53696278,5.781258527,18.79160728,8.575383309
18.07267513,22.96371549,25.63977878,7.037080417,-1.363619819,-8.70235291,-13.90558615,-8.079694071,-3.509305517,0.881274262,-15.38462631,-13.02210202,-17.20573295,-8.866251604,-0.507354489,12.96361119,6.228548803,19.8838898,7.890209687
17.11451426,22.694532,27.0688094,8.51807525,-1.673576636,-7.577190829,-13.25496895,-6.759812982,-1.62635601,2.924204826,-15.12352024,-12.30830751,-15.72943146,-7.328834296,-0.815001558,12.18183837,6.751461089,19.91367223,7.106290467
14.63933984,20.80085159,25.90076256,8.026754926,-3.118449313,-6.621214039,-13.00917402,-7.177273205,-1.030825264,3.620348731,-14.1004844,-10.62747043,-13.66676036,-5.642682161,-0.815530801,10.56698595,7.131968471,18.6103055,6.094213584
10.85173727,17.47046105,22.20822622,5.427028403,-5.532752599,-5.875041101,-12.8828224,-9.252669901,-1.954909243,2.332779543,-12.19192597,-7.861578128,-11.16122702,-3.863324638,-0.277407814,8.549650102,7.121506887,15.90133707,4.669372694
6.026682894,12.98876751,16.81151487,1.449598201,-8.132066634,-5.038370182,-12.03882459,-11.66202104,-3.665663111,-0.506500394,-9.456315235,-4.391835993,-8.236704915,-2.08633103,0.537120724,6.365688602,6.617702728,12.01580009,2.88064201
0.586469702,7.759927585,10.83577806,-2.769421221,-9.882784242,-3.741092613,-9.744471164,-12.58738256,-4.839889722,-3.581448071,-6.186049591,-1.048544788,-4.956338928,-0.458828495,1.065820623,4.024578946,5.720225028,7.476353752,1.032870874
-4.848188668,2.333919269,5.207407376,-6.315472248,-10.0619266,-1.883911535,-6.018816824,-10.84677142,-4.338750958,-5.460984783,-2.925441323,1.201074824,-1.645768061,0.799438453,0.801567707,1.444716729,4.628555223,2.938964053,-0.59510127
-9.572790503,-2.666668739,0.394391541,-8.872864509,-8.667924216,0.213239472,-1.74645142,-6.669511869,-1.915024016,-5.445853962,-0.35648082,1.729227596,1.083113038,1.427284939,-0.418377984,-1.38834173,3.490784515,-1.047486454,-2.045156383
-13.05218723,-6.725010627,-3.521180584,-10.66943196,-6.428647947,1.969728673,1.83183118,-1.614173808,1.588049404,-3.939466097,0.950464868,0.618419168,2.605195713,1.238993459,-2.351167384,-4.35165396,2.351902729,-4.214732773,-3.643204516
-15.12189462,-9.595633592,-6.5842495,-12.12112437,-4.401997349,2.892294012,3.852232335,2.306655284,4.67858749,-2.124586349,0.794422349,-1.360455973,2.673642743,0.268858589,-4.528380494,-7.22081418,1.242555839,-6.573958977,-5.588991442
-15.95684621,-11.32118905,-8.751599138,-13.46918832,-3.410289401,2.858964602,4.246994555,3.731422253,6.04330818,-1.18868311,-0.553995329,-3.225782363,1.613032582,-1.181187379,-6.545465693,-9.758947065,0.298554431,-8.257426195,-7.522188322
-15.81587609,-12.07640828,-9.85509611,-14.62658455,-3.635289883,2.144589743,3.604700365,2.619974222,5.281849503,-1.603306082,-2.476526068,-4.438001752,0.127261553,-2.675778469,-8.268401355,-11.79090343,-0.242440973,-9.329568495,-8.519546718
-14.77228696,-11.95995849,-9.712109449,-15.25161638,-4.583919624,1.192848936,2.670353668,0.149296192,3.135845612,-2.876763291,-4.283257277,-5.258779559,-1.165161064,-3.911168267,-9.825824573,-13.2227038,-0.206454773,-9.702611874,-7.655421538
-12.66724646,-10.90261824,-8.255474168,-14.92610342,-5.406271882,0.319255707,1.902586217,-2.015233168,1.09794349,-3.869517664,-5.487422797,-6.514422721,-2.131439243,-4.93309303,-11.40410905,-14.00828142,0.319566333,-9.202543281,-4.755356882
-9.336969872,-8.766113081,-5.584208497,-13.31943358,-5.357356684,-0.442001317,1.361416966,-2.59719666,0.630324867,-3.43365406,-5.957644789,-8.902384252,-3.15960416,-6.126721504,-13.00658366,-14.10095881,0.950803145,-7.722862594,-0.730080698
-4.921799493,-5.549917015,-1.932867103,-10.30795945,-4.14726656,-1.263008426,0.879330827,-1.263548463,2.421413459,-1.00482403,-5.916088415,-12.35852676,-4.798208231,-7.943160048,-14.37120249,-13.44082725,1.202087979,-5.355737103,2.855995653
0.02122363,-1.53514614,2.378208796,-6.070943175,-2.023780474,-2.307330488,0.275305599,1.35601912,6.067783785,3.135207459,-5.815894099,-15.9913293,-7.263952124,-10.52174745,-15.12537316,-12.00769058,0.792573946,-2.421576913,4.733007614
4.727775735,2.753819159,6.965526972,-1.148568834,0.405665821,-3.549662638,-0.558798304,4.091625797,10.32479031,8.002879675,-6.144137687,-18.66041886,-10.17416357,-13.46406125,-15.06669825,-9.914176035,-0.174591319,0.613030144,4.701731029
8.614688804,6.745554331,11.39154976,3.612470718,2.479718742,-4.753895478,-1.668829152,5.826740541,13.76440796,12.35344457,-7.197260684,-19.76013307,-12.69366058,-15.93368922,-14.3415947,-7.459187248,-1.297236758,3.284726162,3.645785398
11.54761905,10.03542252,15.20552221,7.284418085,3.751237686,-5.605394949,-3.016834325,5.983835693,15.47634085,15.20526787,-8.903319245,-19.59276917,-13.99315904,-17.04694708,-13.35778155,-5.061758547,-2.148937985,5.285747394,2.770478398
13.77862503,12.47835872,18.03277752,9.199733522,4.107069829,-5.891006423,-4.393603111,4.724701272,15.45189422,16.22453284,-10.79422514,-19.04235501,-13.71350823,-16.32869942,-12.47847166,-3.074078493,-2.519379439,6.558272369,2.664681928
15.60942157,14.12819913,19.67496255,9.232749426,3.722159376,-5.608389287,-5.386304068,2.821348358,14.48760295,15.81197557,-12.19260362,-18.82787905,-12.14571412,-13.96376968,-11.7391829,-1.583958102,-2.442339293,7.286319489,2.916336466
17.05601125,15.10609507,20.16201538,7.841488806,2.909893043,-4.951662352,-5.533840363,1.276632765,13.71585773,14.85931775,-12.54953213,-18.95029525,-10.03514536,-10.70103993,-10.83120073,-0.364317875,-2.029958908,7.776099121,2.560441538
17.78411447,15.5112962,19.72809477,5.830755146,1.963177476,-4.201049417,-4.625488465,0.867407243,14.05221688,14.29722825,-11.73375744,-18.7663825,-8.149797393,-7.473681433,-9.385799056,0.955401423,-1.299184121,8.272406624,0.968265248
17.36089921,15.42094487,18.73237366,3.982689582,1.062326073,-3.587324904,-2.906574936,1.818513208,15.84395296,14.66808776,-10.06371175,-17.58300884,-6.873329684,-4.953762833,-7.334720033,2.591971053,-0.16445187,8.809651768,-1.555363004
15.6144433,14.93156194,17.56269351,2.779195201,0.274792024,-3.196987163,-0.969400166,3.759986174,18.83771745,15.94681014,-8.042965585,-15.23652652,-6.044431834,-3.279752962,-5.040520752,4.403617315,1.402673332,9.193365922,-3.941487471
12.81484973,14.16020173,16.53819094,2.348223302,-0.381591681,-2.952936962,0.64009263,5.977453455,22.38652996,17.68449003,-5.996632272,-12.17406213,-5.113930089,-2.087328047,-3.07422201,5.948172085,3.214383594,9.129869296,-5.134813527
9.545024771,13.17520475,15.80730982,2.586123491,-0.867873936,-2.671101528,1.795849228,7.807139767,25.72333075,19.34810101,-3.906641863,-9.028601707,-3.521752131,-0.809875532,-1.824554309,6.770284749,4.879074158,8.412600488,-4.841082267
6.378942779,11.9129824,15.25937459,3.297369101,-1.092371406,-2.164558128,2.817973596,8.952847466,28.17787514,20.61644239,-1.592197624,-6.141121351,-1.086247357,0.919360668,-1.284996366,6.685323463,5.993008413,7.023204189,-3.663285745
3.624004099,10.1754122,14.51487648,4.23857767,-0.930480668,-1.34607161,4.108306556,9.565433799,29.32392112,21.45467139,0.919767072,-3.506399704,1.808948469,2.978992767,-1.220873132,5.816837308,6.345594105,5.071462952,-2.56983638
1.307267378,7.751572951,13.06591832,5.096160697,-0.275933284,-0.277126221,5.706004614,10.08017515,29.09435423,21.97761049,3.182425204,-1.181267566,4.345866809,4.74487147,-1.573298617,4.355092707,5.957498577,2.639767673,-2.172819944
-0.629234071,4.604775564,10.55754342,5.517876466,0.905747414,0.862575113,7.169030161,10.94212938,27.85009937,22.27117197,4.515805634,0.296794899,5.66756719,5.373102935,-2.709872074,2.267840253,4.931780463,-0.306128824,-2.398889867
-2.125387603,0.995744139,7.072109518,5.263574011,2.53878875,1.863470932,7.91266806,12.37740319,26.31154778,22.34096042,4.488502891,0.002472539,5.327159377,4.246113908,-5.224131966,-0.729682384,3.282665146,-3.826754581,-2.751423741
-2.97772811,-2.561811604,3.214601531,4.391606502,4.418350097,2.572699713,7.721468956,14.29604372,25.28010687,22.20670599,3.300927193,-2.702599052,3.530838257,1.345089609,-9.371315501,-4.847839723,0.933612401,-7.794486578,-2.848330836
-3.005379176,-5.507046185,-0.114169997,3.307060709,6.219783644,2.924671349,6.97368268,16.3226991,25.2268407,22.00518554,1.715801983,-7.426881452,1.025725692,-2.666627146,-14.58826517,-9.779451449,-2.089336341,-11.75488764,-2.7244974
-2.246757318,-7.477145481,-2.159115753,2.573139456,7.556900092,2.911547824,6.355675561,17.91667266,25.99264144,21.95282264,0.54767754,-12.62612419,-1.298336778,-6.712910706,-19.55042983,-14.55075292,-5.450238024,-15.03809435,-2.65962299
-0.999247553,-8.435306094,-2.691397677,2.580197886,8.103907584,2.542650953,6.298833457,18.55805839,26.8542925,22.16703098,0.113047901,-16.34786436,-2.840133132,-9.786109452,-22.82361883,-17.89549293,-8.511120211,-17.09380436,-2.760939648
0.348969554,-8.602133229,-2.063917609,3.308832027,7.75391731,1.846790679,6.632677414,17.97661155,26.99194107,22.51178397,0.103077433,-17.37529362,-3.487484628,-11.36976496,-23.67810601,-18.9628511,-10.61191343,-17.80940072,-2.759760608
1.565774016,-8.247746127,-0.899469581,4.374483714,6.731335141,0.918240777,6.766132086,16.34648078,26.07877513,22.64816115,-0.009977218,-15.92617898,-3.502074613,-11.57128604,-22.46284535,-17.85541592,-11.4324296,-17.54348777,-2.262586529
2.701676833,-7.499996074,0.356692929,5.325057083,5.559170142,-0.055453422,6.234987257,14.31108469,24.56084547,22.29900944,-0.395727408,-13.37403201,-3.239057008,-10.92212604,-20.25578388,-15.56918431,-11.15057246,-16.82072403,-1.236699344
3.993836625,-6.310067435,1.681956973,5.957441692,4.844631019,-0.849702973,5.115136049,12.73544432,23.37216258,21.52329283,-0.654410787,-11.2215539,-2.951900269,-10.01248768,-18.07030608,-13.34583248,-10.26444752,-15.92490539,-0.239511336
5.624998988,-4.596409455,3.341581665,6.40310398,4.966292068,-1.335522282,3.916453774,12.24503441,23.24555832,20.74357785,-0.198656435,-10.13502346,-2.812792792,-9.207647422,-16.24259682,-11.90505439,-9.222061861,-14.73811406,-0.089037096
7.528525252,-2.446794397,5.504854617,6.927584531,5.84127921,-1.589485379,3.050505418,12.80534107,24.1198164,20.45296201,1.089753032,-9.753945873,-3.044596928,-8.591077823,-14.45460936,-11.11963855,-8.157322478,-12.97998971,-1.174701785
9.388307105,-0.202486688,7.948924723,7.630707867,6.935713818,-1.865146004,2.375142942,13.65150075,25.11571442,20.80677771,2.544435092,-9.310322784,-3.930297049,-8.086175556,-12.29956111,-10.33681561,-6.925243179,-10.64397829,-2.981478553
10.82389767,1.672599072,10.11460821,8.315381218,7.542507923,-2.406161664,1.274806767,13.69396613,25.14195418,21.43656222,3.11104312,-8.419403077,-5.579196135,-7.585582851,-9.83777793,-9.028582862,-5.358159638,-8.216428903,-4.293294437
11.60847776,2.870215385,11.48025899,8.641983669,7.172868123,-3.223947111,-0.743979268,12.19687369,23.70043664,21.67461887,2.211194787,-7.320012157,-7.604530972,-6.962477727,-7.620027082,-7.208952441,-3.476392497,-6.413739141,-4.00898442
11.75331497,3.464655469,11.94244754,8.432977698,5.821031248,-4.025461952,-3.45428805,9.293461363,21.283902,21.05104643,0.367058423,-6.404723778,-9.051443582,-5.999652969,-6.154215282,-5.295084017,-1.454827625,-5.593017646,-1.978827598
11.41118299,3.896875142,11.87289917,7.857950024,3.939031128,-4.383983755,-5.870928337,5.971688151,19.05747107,19.68831551,-0.99929574,-5.569677945,-8.79870305,-4.391118495,-5.324523076,-3.602237297,0.593739009,-5.334184949,0.798325549
10.70000132,4.681928656,11.78449691,7.329673036,2.151694146,-4.052769242,-6.876012418,3.515195985,18.06541669,18.27685922,-0.530055233,-4.097770292,-6.283212305,-1.923351066,-4.358171963,-1.995754267,2.75641144,-4.631837082,2.807344812
9.605138674,6.010714873,11.86969702,7.189367615,0.912086708,-3.184257586,-6.03033099,2.768625688,18.56709343,17.63248374,2.053423042,-1.289134157,-2.056006281,1.242519261,-2.471119133,-0.074161092,5.177710243,-2.667809019,3.027934689
8.042741842,7.520260004,11.79430677,7.43957822,0.319961482,-2.264381212,-3.90552178,3.717127118,19.98677183,18.15848648,5.692114245,2.684790529,2.311913553,4.423563882,0.305525065,2.251589094,7.718223365,0.384260433,1.579029778
6.025106407,8.420234966,10.93235831,7.742285048,0.189808802,-1.784530147,-1.65541808,5.630625789,21.46037252,19.60202147,8.721171163,6.522850173,5.03772778,6.604654393,2.855967922,4.333459369,9.740299489,3.197285005,-0.460364601
3.780457314,7.932296365,8.872382164,7.677532663,0.271959313,-1.887946285,-0.175003167,7.611690182,22.49383048,21.25781577,10.03919464,8.500724346,5.173311297,6.9332137,3.608224838,4.998205267,10.30401202,4.020899246,-1.874501153
1.714430346,5.778933123,5.80366805,7.047930956,0.441154209,-2.262217855,0.472463722,9.123950357,23.19832266,22.4338001,9.811329363,7.67768686,3.179921792,5.22825597,1.665715554,3.349226182,8.727440023,1.86667888,-2.127198029
0.227735908,2.40822718,2.484040449,5.993143218,0.729217394,-2.364906539,0.929041737,10.15734681,23.96522757,22.82659963,9.184560802,4.64726414,0.610725546,2.147131981,-2.418966269,-0.436149064,5.120934414,-2.696003767,-1.577516522
-0.48060467,-1.195832775,-0.181697455,4.852772497,1.223507987,-1.809330086,1.888596229,11.01306342,24.93647715,22.57542552,9.293459205,1.183063808,-0.893708308,-1.139308641,-6.87142153,-4.988990872,0.459364427,-7.754145045,-1.014078017
-0.483972713,-3.999538142,-1.631246646,3.924731393,1.952160411,-0.615802159,3.512028526,11.97567928,25.78556113,22.04097998,10.38772253,-0.989331802,-0.600582213,-3.572418869,-9.809550089,-8.491552482,-3.917306743,-11.17570213,-0.959617006
-0.031077193,-5.397009931,-1.855599119,3.32834984,2.855118911,0.847920063,5.389695564,13.15391814,26.01771265,21.54505183,11.76675032,-1.344879761,1.000689239,-4.726590036,-10.43256921,-9.777248451,-7.037500941,-11.86910587,-1.3229807
0.633330832,-5.39716174,-1.229827199,3.055800475,3.834895659,2.155452353,7.000693914,14.54045316,25.50292562,21.26430401,12.5023104,-0.742676798,2.713585178,-4.898551028,-9.404651435,-8.976837996,-8.733420847,-10.29810634,-1.62568491
1.389375506,-4.449481005,-0.161762797,3.109075137,4.801906384,3.081411374,8.173158998,16.10891782,24.7182979,21.27466401,12.27576479,-0.540851461,3.519252686,-4.752372497,-8.17803473,-7.238683568,-9.479575244,-7.930559297,-1.528910134
2.22130878,-3.08144172,1.135693762,3.546516453,5.651110561,3.626669802,9.091933096,17.75994356,24.41696566,21.59695796,11.60090741,-1.410270927,3.150323926,-4.813980412,-7.820581592,-5.773100433,-9.812917329,-6.092153847,-1.161395932
3.091265313,-1.622531561,2.594968732,4.365127923,6.200926634,3.834205292,9.875481809,19.14461131,24.95575032,22.13521655,11.27158688,-2.830872675,1.992807332,-5.177860743,-8.272262374,-4.990206313,-9.83845054,-5.110382107,-0.967291631
3.828491249,-0.187425691,4.07313372,5.322013376,6.189963386,3.616960189,10.19354525,19.60288294,25.84879543,22.56736441,11.55587684,-3.65060332,0.527634039,-5.584533974,-8.576432092,-4.394733748,-9.225073564,-4.358273135,-1.23951717
4.140064946,1.127860783,5.206430458,5.883931814,5.387375545,2.80086952,9.384215317,18.42002365,25.96396983,22.35680661,11.86415975,-3.187137146,-1.131961172,-5.730419647,-7.836180136,-3.262928273,-7.65896289,-3.074240836,-1.781716894
3.75086648,2.049812991,5.501629608,5.408052673,3.757705384,1.366533939,7.04978323,15.31938155,24.25765572,20.97608761,11.18533615,-1.917909564,-3.204740444,-5.521750197,-6.081005873,-1.485261363,-5.320160473,-1.229549539,-2.01837871
2.579722026,2.138375647,4.611595881,3.474181401,1.541434312,-0.346826782,3.60658721,10.82588777,20.49360785,18.23226384,8.909413779,-1.1823664,-5.796542697,-5.083258701,-4.336362514,0.16205092,-2.925765777,0.292354862,-1.470038291
0.832810632,1.045320654,2.592202997,0.165316744,-0.843418502,-1.719600319,0.22218375,6.139724007,15.39921268,14.45297748,5.33053918,-2.163045438,-8.521271906,-4.570909468,-3.854492444,0.566941399,-1.25921037,0.364227265,-0.185084504
-1.042129514,-1.140354192,-0.033500873,-3.873843562,-3.028513562,-2.224828645,-1.9278975,2.505392096,10.17170549,10.3727104,1.422570607,-4.992722254,-10.60328853,-4.001048221,-5.133622566,-0.780208274,-0.558176765,-1.397459006,1.250153534
-2.50315597,-3.710493312,-2.423814321,-7.623200508,-4.879115001,-1.829184837,-2.532301438,0.486426029,5.764313876,6.794292368,-1.880546081,-8.680367615,-11.42738902,-3.264038429,-7.493189016,-3.214309895,-0.277299642,-4.112625686,2.147973267
-3.074737686,-5.48911569,-3.67165958,-10.00724147,-6.479919951,-1.079665191,-2.410205735,-0.307416563,2.520134501,4.282144397,-4.255126131,-11.83165857,-11.0645326,-2.296464238,-9.50467769,-5.157692747,0.547306093,-6.014997059,2.254323627
-2.456567849,-5.291709607,-3.050648668,-10.21005952,-7.924711992,-0.751790206,-2.8845849,-0.798351671,0.377397264,3.101115346,-5.932820403,-13.50169339,-10.27130322,-1.227829581,-9.90929468,-5.042708965,2.585410922,-5.482741557,1.950965372
-0.577239056,-2.481724616,-0.220569278,-7.906343879,-9.081994162,-1.283804821,-4.699196217,-1.613198765,-0.640606537,3.381254506,-7.126100874,-13.49551524,-9.884799141,-0.339197933,-8.323886435,-2.241787266,5.681714652,-2.012499909,1.959721031
2.374704889,2.655249017,4.599530933,-3.384929119,-9.545001141,-2.414504387,-7.311174343,-2.474871329,-0.164655801,5.278109456,-7.509164834,-11.99994138,-10.06236401,0.150892093,-5.273700174,2.609560658,8.890128989,3.498622238,2.773126135
5.932312073,8.919843615,10.53775798,2.462767033,-8.837054612,-3.310473847,-9.12048282,-2.294692181,2.281356305,8.910070841,-6.274501298,-9.048364126,-9.996031287,0.28799487,-1.65344892,8.033467071,11.02280223,9.283100079,4.237033323
9.385412315,14.61078545,16.18138527,8.341333645,-6.73955352,-3.106433769,-8.481776678,0.074019015,6.749494566,14.08602818,-2.766643501,-4.431657676,-8.394984654,0.379681569,1.871248237,12.50182244,11.30023571,13.62551537,5.582493972
11.92606571,18.17178176,19.98910903,12.94744508,-3.506088074,-1.474841815,-4.767218282,4.956240753,12.53206287,20.07665212,2.823422958,1.808490767,-4.433993067,0.766290354,5.059958647,15.06600593,9.672007081,15.58064857,5.871063754
12.90436367,18.79138222,20.91186457,15.4453397,0.193660364,1.171414307,1.242124501,11.47269732,18.34322746,25.70034452,9.287808848,8.781615065,1.513815048,1.538192921,7.843887279,15.53078349,6.680338381,15.14301126,4.544413608
12.09776752,16.68690069,18.91304634,15.78268157,3.560392654,3.955872449,7.816830903,17.90641162,22.89220849,29.75519471,14.91465454,14.70606842,7.90333241,2.429730349,9.971644648,14.25558801,3.081117481,12.94796828,1.739809513
9.840532158,12.94255274,15.0356427,14.6318238,5.988984942,6.061148109,13.17271194,22.54499846,25.40196796,31.53256912,18.30714999,17.65387973,12.80170944,2.985633242,10.95081758,11.86134967,-0.457011647,9.841357495,-1.775531973
6.906490708,8.980735574,10.89350173,12.95004715,7.239685792,7.122435202,16.18740224,24.44488779,25.71572682,31.05822927,18.93622713,16.63859807,14.9009953,2.881092041,10.37245853,9.035104741,-3.426879496,6.598764591,-4.959885956
4.175441776,5.926162555,7.840267035,11.41664193,7.403210251,7.266429271,16.61674684,23.69861338,24.02841603,28.90916316,17.12889352,12.25966566,14.10724963,2.15613062,8.331677125,6.420235097,-5.431217171,3.835612381,-6.927182606
2.251963067,4.176882753,6.314300098,10.11229626,6.748495498,6.85934615,14.91770954,21.17043188,20.59871692,25.77757254,13.65452845,6.402783128,11.39308839,1.191275287,5.544776904,4.48757526,-6.19410128,1.97261709,-7.260778873
1.24519625,3.382341925,5.762772953,8.643363454,5.578300678,6.213654934,11.96706606,17.97409987,15.74032347,22.12080895,9.306898678,1.175484601,8.109129658,0.445245217,2.998918498,3.372704539,-5.691998041,1.146561779,-6.114618847
0.824126337,2.800625004,5.159266055,6.584247532,4.147491519,5.460030824,8.81553402,15.00309193,10.02754702,18.1130434,4.729523075,-2.21517624,5.248111624,0.142846844,1.348963633,2.802173623,-4.267400574,1.111988933,-4.089704342
0.495175549,1.796689566,3.729047228,3.872730727,2.616895993,4.599703631,6.394783932,12.65661046,4.355282585,13.82784923,0.407957173,-3.951578069,3.075206577,0.12288301,0.488679812,2.234574289,-2.543335926,1.279211947,-1.933584407
-0.080123977,0.18194424,1.384650529,0.846315522,1.009437363,3.604440133,5.102833366,10.75178051,-0.411504888,9.39843509,-3.394308616,-5.261396717,1.216951158,-0.066241683,-0.389657538,1.179561554,-1.11745566,0.963928864,-0.174899928
-0.916777157,-1.777721188,-1.372525674,-2.082350074,-0.80383998,2.44707833,4.446253395,8.604058554,-4.032431601,4.983680336,-6.811756171,-7.584273023,-0.978309342,-0.896847836,-2.271749831,-0.516032108,-0.230232732,-0.255782103,1.132109482
-1.765126973,-3.630516731,-3.919723745,-4.801468029,-3.022732087,1.074508053,3.113355825,5.319745269,-7.203460048,0.617735782,-10.44488102,-11.79387571,-4.056335383,-2.580685011,-5.665275407,-2.6258564,0.338094711,-2.298430664,2.38421642
-2.325934976,-5.057075451,-5.94018389,-7.571180491,-5.733073756,-0.576505622,-0.316812817,0.305848037,-11.1598111,-3.819476209,-15.05607946,-17.82264903,-8.184231818,-4.918433846,-10.21220014,-4.758868355,1.053251141,-4.618795227,4.092757673
-2.462735533,-6.010247781,-7.494156658,-10.69795731,-8.724399974,-2.469817528,-6.324184275,-6.187325023,-16.69827336,-8.376349262,-20.92999076,-24.70533525,-13.00911308,-7.337840185,-14.78495251,-6.623839478,2.25958759,-6.498382148,6.41890225
-2.272590794,-6.605969354,-8.742212757,-14.07543805,-11.4710677,-4.348739662,-13.76976948,-12.85292129,-23.30723371,-12.69362612,-27.32906915,-30.88417214,-17.65925792,-9.095097383,-17.99209223,-8.102839086,3.94100971,-7.386165785,8.909904641
-1.979171532,-6.886304991,-9.606157473,-16.99498152,-13.34713958,-5.752042984,-20.20667648,-17.73415184,-29.14223197,-15.8881052,-32.5603822,-34.65865644,-20.94384428,-9.563176254,-18.8088723,-9.089364337,5.770885384,-7.078245855,10.6815682
-1.726710605,-6.659357031,-9.6676711,-18.42711613,-13.95777322,-6.225874875,-23.14696154,-19.16538755,-32.00550469,-16.86941219,-34.78221654,-34.7384765,-21.77658418,-8.50445169,-17.01493346,-9.293856863,7.364457883,-5.670494801,10.98585241
-1.413537867,-5.54601577,-8.378490593,-17.5953528,-13.3452215,-5.609854096,-21.5121416,-16.72395719,-30.70523536,-14.95295928,-33.08764411,-30.79718123,-19.697586,-6.215001554,-13.24601812,-8.277179681,8.4944887,-3.389676151,9.781842785
-0.682388695,-3.202065457,-5.402589667,-14.42502121,-11.89708016,-4.174140078,-16.27452602,-11.5417438,-25.82367826,-10.34548791,-28.1060373,-23.76965627,-15.21106358,-3.452129409,-8.662552208,-5.767818933,9.101319792,-0.467736322,7.861048108
0.902464556,0.436687738,-0.838076924,-9.551562387,-10.01735809,-2.474332179,-9.825816283,-5.689079535,-19.3274426,-4.124014395,-21.65628053,-15.61021262,-9.670238228,-1.138038237,-4.413381993,-2.025628572,9.14445696,2.859362291,6.365304016
3.570105227,5.039018323,4.798292216,-3.924274141,-7.828882296,-1.013052292,-4.51393713,-0.982741941,-13.31210431,2.3055187,-15.67291487,-8.480801008,-4.683527301,0.046262824,-1.160476417,2.092358481,8.496110834,6.281750228,5.994291569
7.106214611,9.947077663,10.75019589,1.657716272,-5.167713162,0.038097778,-1.37061676,1.992898364,-8.808201263,7.890883337,-11.16499164,-3.746077221,-1.342161688,-0.026174737,1.106188355,5.507004724,7.024450226,9.392511305,6.477386364
10.82178664,14.37574445,16.21643303,6.738351347,-1.88997631,0.845731794,0.14005929,3.989800166,-5.483916064,12.2860567,-7.918261199,-1.378677583,0.271358077,-0.888988007,2.887621591,7.516731742,4.809186685,11.77657574,6.736211161
13.79193831,17.64382857,20.48883876,11.06572856,1.769237987,1.663400247,1.318020608,6.288234554,-2.352003398,15.68415913,-5.058099954,-0.175959922,0.988041105,-1.751065284,4.754803681,8.192707838,2.273570873,13.16691635,5.668277257
15.27625831,19.35898421,23.06819282,14.35815756,5.1195883,2.546809206,3.089540931,9.594830816,1.172958881,18.35304901,-1.945048104,1.345824719,1.938624262,-1.922556982,6.950114201,8.26740741,0.062727811,13.5571289,3.004366482
15.10060703,19.51519699,23.79857141,16.26265354,7.340304999,3.277708418,5.391591395,13.44872121,4.711835245,20.28952213,1.303722516,3.983365952,3.817216804,-1.153660212,9.248530845,8.589750236,-1.283931061,13.18882192,-0.391638269
13.76410925,18.4775221,22.96088892,16.56476546,7.985320155,3.54651844,7.405875282,16.52042802,7.210509108,21.23931042,3.978127855,7.434744224,6.468558144,0.291786888,11.13284104,9.541260857,-1.624618146,12.42235757,-3.019564466
12.17297572,16.83652434,21.19210079,15.4270312,7.273707136,3.214527302,8.27276142,17.51262499,7.727853446,20.97649302,5.344743312,10.63601901,9.001607103,1.827477035,12.11940096,10.81790669,-1.240724235,11.57151969,-3.695618257
11.13079721,15.15374311,19.17301746,13.37281177,5.922846958,2.414851128,7.63058482,15.96862349,6.033052073,19.52547056,5.072895787,12.49184036,10.2930826,2.843731559,11.98206839,11.68590488,-0.579730237,10.78714892,-2.291940426
10.88769548,13.69425807,17.22781433,10.95947904,4.645789056,1.409778395,5.626357053,12.44757083,2.596441161,17.11687793,3.213380401,12.4311388,9.550447488,2.932972336,10.73396959,11.47010351,0.068733844,10.02686723,0.237106808
11.03574943,12.29650116,15.12226584,8.39284906,3.705906146,0.352533484,2.582770793,8.058656806,-1.868037217,13.96507416,-0.092817866,10.47416216,6.650226884,1.964325964,8.448764564,9.909000773,0.70265399,9.099520403,2.516073675
10.82225662,10.48962823,12.26510616,5.429292396,2.866850452,-0.810378312,-1.231867384,3.800219681,-6.812356858,10.13739014,-4.756409926,6.95461425,2.158461282,0.057294951,5.144628978,7.181128836,1.462989217,7.757208016,3.595635801
9.672189967,7.82548261,8.225498946,1.685300561,1.737397359,-2.198024157,-5.505729898,0.181399809,-11.8872705,5.675229748,-10.53148268,2.280789683,-2.895484943,-2.456667288,0.885344562,3.694072276,2.379218053,5.81387367,3.408391735
7.566934295,4.23436329,3.203496556,-2.885279209,0.180213137,-3.754357758,-9.666822358,-2.737773451,-16.72210423,0.841366898,-16.69922189,-3.044531524,-7.371614139,-5.061971664,-3.974058562,-0.122822747,3.26022298,3.266550656,2.600879781
5.032047189,0.17034352,-1.920318018,-7.754711495,-1.580423562,-5.160133406,-12.93871563,-5.111849721,-20.83624368,-3.795667842,-22.09019843,-8.288100895,-10.40043779,-7.136892412,-8.652358667,-3.869014504,3.842569283,0.375074273,1.975227211
2.772118266,-3.560359152,-6.028598086,-12.04494535,-3.224220995,-6.022099699,-14.78724279,-7.165334554,-23.87677061,-7.587420967,-25.61704093,-12.54939289,-11.69652897,-8.139716949,-12.13107174,-7.117363028,4.061543879,-2.354787357,1.997395818
1.242970031,-6.17620663,-8.388936287,-15.0363405,-4.688654715,-6.201523345,-15.41160161,-9.187154617,-25.94353844,-10.16620783,-26.96666228,-15.13296093,-11.6740668,-7.856929924,-13.62277331,-9.412716292,4.182802963,-4.309765893,2.676415584
0.476223115,-7.249057744,-8.986545289,-16.53415007,-6.231168454,-5.985175058,-15.75541628,-11.47593763,-27.5602267,-11.58729978,-26.83640354,-15.95951888,-11.24540614,-6.557718034,-13.01010735,-10.40415344,4.641117717,-4.987605768,3.768556251
0.25020631,-6.783779134,-8.329764109,-16.78941449,-8.087631444,-5.905522811,-16.85585938,-14.08466903,-29.14185411,-12.07583849,-26.39870441,-15.5938572,-11.31990527,-4.904758752,-10.91424656,-10.02114732,5.685422477,-4.197432231,5.024334152
0.413683357,-5.054266824,-6.923172244,-16.07390042,-10.01586469,-6.311635923,-18.95036901,-16.50081299,-30.36019883,-11.59948044,-26.33661097,-14.75164025,-12.23639691,-3.620365445,-8.306643383,-8.52919536,7.107171155,-2.145147666,6.248892588
1.051543903,-2.389274159,-4.87761311,-14.33346501,-11.18127822,-7.028318531,-21.07603613,-17.62533209,-30.07054688,-9.724966457,-26.2337331,-13.64521229,-13.48795251,-3.09486356,-5.928791457,-6.400302967,8.278248964,0.629666459,7.19331559
2.333716136,0.891021324,-1.999966801,-11.28623571,-10.59758686,-7.404086385,-21.59088723,-16.28730405,-27.09348507,-6.017453239,-24.8910682,-11.76703628,-13.97749404,-3.193497682,-3.941725465,-4.105584116,8.48855835,3.421515916,7.483081886
4.184064014,4.365584701,1.726245164,-6.920039345,-7.859909742,-6.751430292,-19.32169846,-12.08418306,-21.37928092,-0.72676585,-21.39680583,-8.403004881,-12.70413803,-3.395758759,-2.048392913,-2.002023872,7.349532859,5.553104764,6.746736468
6.092052231,7.409649623,5.728420759,-1.93363868,-3.603457121,-4.863325485,-14.49585783,-5.947255542,-14.58703948,4.869278976,-16.10505545,-3.522800913,-9.453726298,-3.168818482,0.045628036,-0.371564169,4.996721131,6.53970833,4.888184667
7.29695152,9.307915999,8.937405,2.360019812,0.727885307,-2.213974739,-8.727511881,0.105786474,-9.408458246,8.932334416,-10.68007104,1.728680567,-5.019842305,-2.312553322,2.234869331,0.506934015,1.992683454,6.207636955,2.26885798
7.264752585,9.603988616,10.40345129,4.72909819,3.703225084,0.312334326,-4.040385886,4.015635652,-7.923823193,10.16486774,-7.083655624,5.488365569,-0.787162158,-1.046114188,4.015490421,0.42175449,-0.953331078,4.759600665,-0.394595843
6.104398926,8.452638012,9.981668445,4.841928083,4.744097581,1.961300995,-1.650558463,4.868581867,-10.14501775,8.755910528,-6.253004575,6.371628736,2.041584712,0.192597076,4.875909002,-0.553962818,-3.24467679,2.753729119,-2.385154281
4.570315166,6.658067958,8.514672203,3.549495145,4.371165866,2.520676944,-1.3973622,3.381858891,-13.90998288,6.363226129,-7.505048002,4.522637901,3.04312416,1.054363012,4.734551268,-1.889075129,-4.515985895,0.950316631,-3.349160325
3.594016498,5.275058241,7.301738023,2.331479885,3.690237908,2.326999013,-2.172559842,1.309803379,-16.33829716,5.003002661,-9.146135079,1.641183144,2.611802153,1.458023863,4.043825299,-2.715800773,-4.64037766,0.030612777,-3.41520436
3.655493618,4.989771165,7.208785465,2.25355283,3.525928991,1.91346583,-2.912786576,0.186668483,-15.84545928,5.595092196,-9.804271872,-0.139088482,1.485863304,1.536365264,3.464434773,-2.285991281,-3.72005829,0.292909248,-3.010876019
4.451105685,5.706914946,8.081567711,3.198458823,3.862566374,1.605625872,-3.334571039,0.319787954,-13.22392822,7.261818228,-9.426567615,0.268955586,0.178907273,1.438066314,3.377314498,-0.485416684,-2.092047263,1.500644852,-2.547986178
5.112190224,6.656498649,8.911441479,3.960627032,3.983648732,1.36845257,-3.894831322,0.743930385,-10.97267063,7.960942499,-9.174659038,2.178271686,-1.249711515,1.173838934,3.631725736,2.00553411,-0.279590357,3.009710067,-2.2137355
4.824876318,6.959867851,8.626484317,3.147109142,3.140017748,0.969402331,-5.153968638,0.099298276,-11.39654217,6.013879296,-10.36250767,3.699303277,-2.982665982,0.628476153,3.720085315,4.10295927,1.189813763,4.136158079,-1.972998331
3.404655122,6.245934444,6.897792993,0.210249743,1.179167201,0.2633307,-7.192997436,-2.300014504,-14.94161954,1.375442385,-13.35154379,3.147105931,-5.070928624,-0.296896679,3.208743215,5.033338592,2.062728105,4.548880514,-1.695447852
1.415217356,4.865561121,4.347742742,-4.159827696,-1.35719733,-0.66102628,-9.602290207,-6.031568641,-20.01922022,-4.325738137,-17.3087554,0.185820252,-7.283879101,-1.55415096,2.053544524,4.848551472,2.558444872,4.427688773,-1.249491371
-0.241564943,3.55922794,2.024600423,-8.553349285,-3.697888323,-1.574329237,-11.97613075,-10.02398528,-24.36945184,-8.990687508,-20.96764394,-4.128179341,-9.3159276,-2.94167202,0.557261773,4.333287987,3.298072663,4.273883459,-0.501964917
-0.957669581,2.853619777,0.582505955,-11.83810202,-5.443868467,-2.316065398,-14.36028462,-13.43388904,-26.79929851,-11.54146221,-23.67201114,-8.31692222,-11.11193928,-4.211613974,-0.940979561,4.358442794,4.935450565,4.506794378,0.691980031
-0.823533074,2.665567845,-0.177713137,-13.85515027,-6.800259189,-2.905783955,-17.15041893,-16.16570151,-27.88285347,-12.53912578,-25.76251094,-11.56752853,-12.9331165,-5.18294831,-2.319166186,5.183128726,7.690064107,5.142527943,2.395565257
-0.539112862,2.418477803,-1.054467953,-15.30057365,-8.269057439,-3.452257777,-20.47634722,-18.62502008,-29.1152219,-13.48601284,-27.96726384,-14.01808892,-15.01804483,-5.765637188,-3.618099981,6.266565415,11.0932965,5.796653457,4.410328532
-0.918882001,1.568579449,-2.695030486,-16.93676656,-10.08782034,-3.955102095,-23.63977779,-20.99007078,-31.30521191,-15.42204068,-30.35751262,-16.09125945,-17.10315707,-5.902358345,-4.743095929,6.750542989,14.14625584,6.010666534,6.184106664
-2.338989613,0.120669474,-4.948237121,-18.79392256,-11.89453425,-4.19734891,-25.20868793,-22.70736562,-33.60614762,-17.95918379,-31.84797276,-17.59470947,-18.27761691,-5.520232055,-5.249262647,6.227108865,15.81762077,5.652871789,6.986646908
-4.475926228,-1.269825653,-6.826724759,-20.00302654,-12.89188578,-3.848342124,-23.85059087,-22.71389613,-34.02742763,-19.50398276,-30.78833756,-17.51847739,-17.43575799,-4.572455117,-4.498302581,5.161096737,15.57772906,5.081010588,6.333929802
-6.464556956,-1.686621225,-7.110807694,-19.38575466,-12.36998642,-2.70996628,-19.33987541,-20.24470564,-31.02310125,-18.44778952,-26.26136926,-14.82198672,-14.09524884,-3.151516957,-2.146798234,4.602123828,13.64000093,4.929350324,4.391811045
-7.341356276,-0.544792638,-5.151399696,-16.33852368,-10.17394887,-0.910525912,-12.95310988,-15.55732792,-24.85643673,-14.36092266,-19.05575462,-9.572503552,-8.976984041,-1.566488571,1.409948617,5.388146439,10.77748501,5.664901219,2.020581462
-6.50745066,2.032546571,-1.30895921,-11.3432063,-6.777909813,1.113069381,-6.875838044,-9.942765119,-17.62018648,-8.289277124,-11.47136666,-3.394583611,-3.830748035,-0.283870887,5.051559783,7.455150631,7.855714705,7.231322213,0.338626575
-3.989834024,5.284946351,3.241743424,-5.746214566,-2.957938462,2.839743319,-2.971774182,-4.963828269,-11.87949135,-2.015098475,-6.003382863,1.304457661,-0.513838661,0.266123468,7.492588249,9.79305619,5.3846021,9.0355584,0.046039316
-0.41951724,8.235367684,7.159065873,-0.998841528,0.645691991,3.937209148,-1.741099448,-1.488681073,-8.99318997,3.055809721,-3.827818742,2.855602003,0.100341731,-0.094654675,8.040792398,11.09006742,3.347939247,10.28522864,0.970352635
3.224244275,10.15170957,9.58223919,2.086693907,3.751709051,4.401923311,-2.157426121,0.74469994,-8.38545111,6.521510872,-4.175495784,1.449010525,-1.361153207,-1.191784196,7.015018933,10.58744717,1.373197399,10.44327864,2.177036398
5.984706588,10.78009283,10.40247231,3.585214435,6.341561358,4.494228622,-2.446887824,2.716704066,-8.249471682,8.768247239,-5.0140403,-1.037574383,-3.193194262,-2.571267978,5.509498566,8.52974478,-0.901038108,9.503754135,2.593138271
7.273785082,10.29412706,10.08862797,4.13332397,8.401952974,4.540117433,-1.243153195,5.207063278,-7.048596204,10.26732089,-4.497416443,-2.402722423,-3.68718138,-3.690909604,4.666090834,5.927324119,-3.496210792,7.937076817,1.717228699
7.062213961,9.093766393,9.282030517,4.349437002,9.75545798,4.73915362,1.632687092,8.078302953,-4.636651864,11.05708003,-2.13486532,-1.650003437,-2.136427643,-4.118260247,4.969408187,3.862735976,-5.991393688,6.380691576,-0.076280032
5.828589004,7.618223848,8.448012131,4.425259881,10.10580068,5.080033669,5.181304116,10.2833659,-2.227258282,10.79452575,1.07119619,0.455156411,0.855885976,-3.654955152,6.039091428,2.86447072,-7.698085565,5.294401797,-1.831980848
4.28283188,6.237649886,7.74428632,4.111368094,9.228081291,5.375742073,7.885222337,10.55493729,-1.392606442,9.197669185,3.457928063,2.14925854,3.871613873,-2.378917484,7.003375351,2.74641585,-8.017472963,4.778450138,-2.668163969
3.006007667,5.191390055,7.08863221,3.012186257,7.138074917,5.366137561,8.524012176,8.249262976,-2.964497498,6.388643255,3.78157695,2.072342885,5.542377514,-0.633654042,7.116805579,2.919153101,-6.792948026,4.616421195,-2.313095822
2.216238069,4.541471297,6.317867346,0.931761297,4.132159066,4.82885458,6.680438374,3.762260624,-6.635267079,2.830155551,1.783211816,0.184146064,5.18811867,1.027792318,6.158993098,2.85711164,-4.462477665,4.471178149,-1.168142954
1.802898991,4.176554159,5.345303276,-1.946818554,0.710032526,3.664732214,2.774899406,-1.703304991,-11.38128455,-1.009487827,-1.990825207,-2.450848375,2.914276224,1.972823414,4.391811922,2.383847551,-1.89927868,4.110785025,0.08670545
1.585109951,3.923396828,4.269256964,-5.105513724,-2.547342158,1.942436388,-2.23800503,-6.784860549,-16.18917328,-4.876936965,-6.746898893,-4.693702919,-0.70134419,1.707568063,2.231284507,1.668127423,0.015370027,3.566642873,1.006788605
1.573922004,3.740366388,3.396419046,-7.887648167,-5.104516859,-0.110797379,-7.272235247,-10.57375058,-20.4713932,-8.62481005,-11.83050503,-6.227694814,-4.959422001,0.121289601,-0.015770643,1.061848664,0.879355481,3.171046163,1.637080944
2.000990716,3.848973207,3.137421602,-9.744271822,-6.612676335,-2.178004905,-11.44501231,-12.87365957,-23.99160292,-11.94928193,-16.70260197,-7.572256458,-9.172550503,-2.380416264,-2.135676826,0.956494125,1.032691426,3.450780158,2.367027157
3.059444233,4.642587176,3.771277088,-10.45121486,-7.05672551,-3.958590669,-14.28412108,-14.07310744,-26.60547987,-14.34377237,-20.72712503,-9.287495191,-12.63620341,-4.978937112,-3.814741832,1.701691373,1.398699262,4.884654047,3.55341211
4.556886906,6.361053,5.177622005,-10.22632852,-6.823895013,-5.258457885,-15.79267099,-14.81130395,-28.20458976,-15.41836343,-23.16532509,-11.16222575,-14.68061843,-6.784213528,-4.568727204,3.501975148,2.941083007,7.597186919,5.21754008
5.796401518,8.739340849,6.724757284,-9.670244642,-6.577535204,-6.01324655,-16.35391275,-15.63592166,-28.90900576,-15.31055716,-23.52338637,-12.18001362,-14.93852341,-7.254371913,-3.984683521,6.240387931,6.029785826,11.14109333,7.016957218
5.860547633,10.93304338,7.467146322,-9.49442581,-6.916270991,-6.240787453,-16.4867434,-16.75762906,-29.1857779,-14.72444508,-21.9848243,-11.35201423,-13.6729079,-6.454310451,-2.139181306,9.335787952,10.10865926,14.54232493,8.461377543
4.162721376,11.87222325,6.620358497,-10.12123842,-7.981244329,-5.975440724,-16.54445114,-17.93720897,-29.5822172,-14.42037744,-19.48235899,-8.708019352,-11.82959917,-4.990780921,0.188852593,11.83627689,13.90629975,16.67516403,9.180957934
0.890262904,10.8783958,4.057131734,-11.37540329,-9.285577947,-5.249037529,-16.51641994,-18.54174436,-30.1690109,-14.51389881,-17.20987731,-5.540140087,-10.61454878,-3.653980972,1.812825754,12.8344575,16.09941279,16.82629958,9.067031229
-3.001152786,8.139061945,0.488108259,-12.50243447,-9.945405883,-4.132567722,-16.05722488,-17.80308635,-30.18832567,-14.2247799,-15.84721762,-3.580915815,-10.76791455,-2.976428329,1.861466808,12.01630487,16.03773611,15.13043604,8.241223434
-6.277621962,4.681709454,-2.845112844,-12.57639382,-9.219288122,-2.783082978,-14.72678045,-15.22438448,-28.36296687,-12.42150473,-15.06361051,-3.69163573,-12.01182591,-2.967232637,0.459756174,9.95922772,14.08189392,12.57046102,6.935258095
-8.087621505,1.820145741,-4.815869593,-11.08385543,-7.010979089,-1.421396119,-12.28185822,-10.94116519,-23.80433688,-8.626843199,-13.7141078,-5.095327864,-13.10906071,-3.165732377,-1.170555248,7.887342579,11.34447712,10.47388797,5.388699868
-8.354432732,0.423555562,-4.999318125,-8.300465844,-3.974873147,-0.226230118,-8.833077515,-5.789298409,-16.88451221,-3.668516836,-10.64653684,-5.818353096,-12.57572917,-2.963327613,-1.373873051,6.95579833,9.007192268,9.769445418,3.809837132
-7.66076101,0.492499909,-3.822879968,-5.174066141,-1.127652843,0.77915614,-4.794934757,-0.968509891,-9.339087872,0.655520489,-5.577118205,-4.08208888,-9.62253323,-1.991961396,0.876810129,7.509464001,7.655077654,10.45973679,2.377260766
-6.754389839,1.305905085,-2.19643285,-2.759448379,0.771686914,1.738886789,-0.709556089,2.539550992,-3.393579593,2.760301581,0.573756525,0.363623823,-4.711113695,-0.356093391,5.217653267,8.838426354,7.041731893,11.65798597,1.245491742
-6.057677954,1.993170338,-0.897421424,-1.58123084,1.635791804,2.835250525,2.91346907,4.437683783,-0.46658262,2.432050855,6.11930812,5.959061541,0.644977172,1.411408105,9.984525528,9.638374218,6.401503184,12.17788394,0.545494548
-5.517273879,2.097853813,-0.144945037,-1.373064693,1.971760961,4.101730853,5.66863338,5.151986675,-0.375157357,1.020988063,9.520193801,10.32726503,4.702985089,2.632798716,13.15334919,8.888635287,5.06438033,11.29562424,0.388634304
-4.839470343,1.746574569,0.362472733,-1.379104888,2.395641823,5.330681972,7.280266016,5.422800044,-1.623677001,0.44026527,10.17571848,11.82586276,6.405083284,2.849174898,13.54252819,6.549447634,2.949323618,9.185161253,0.866052816
-3.86332944,1.365930094,1.025222738,-0.993051375,3.119919804,6.17057641,7.661494101,5.746942473,-2.551058539,1.68726111,8.617383847,10.54919722,5.827448929,2.07004773,11.49210957,3.592213197,0.620538207,6.751178615,2.014411873
-2.753669003,1.232510373,1.896478869,-0.261211844,3.795529612,6.358522194,7.004602783,6.066454646,-2.479109064,4.013550162,6.054846405,8.100911937,3.95086041,0.774323014,8.573974433,1.338835077,-1.101554788,4.994342593,3.738345772
-1.880154159,1.232520001,2.567721403,0.119298855,3.801859726,5.914081723,5.793820172,5.895127042,-2.041686704,5.39444366,3.63074087,6.363922882,1.98290362,-0.346652197,6.535822655,0.566952127,-1.691301184,4.351991928,5.738905021
-1.514492725,0.997713749,2.468416443,-0.701696193,2.73719604,5.136811546,4.629931958,4.737609312,-2.531751258,3.955464906,1.861848544,6.193607997,0.696767473,-0.776775125,6.190932041,0.995007793,-1.25849003,4.45347337,7.536814518
-1.605925045,0.264330424,1.33669125,-3.103640685,0.733124991,4.398489168,3.8975542,2.458460641,-4.841715968,-0.708362576,0.546135329,6.952754117,0.152946857,-0.483364128,6.98492148,1.49160705,-0.462066751,4.428930168,8.638770443
-1.801758359,-0.864137437,-0.509484184,-6.689219263,-1.617705328,3.884226719,3.480370771,-0.653246821,-8.815387738,-7.269283397,-0.915808959,7.141609567,-0.137237877,0.040907092,7.493576955,0.857581273,-0.064764665,3.535529987,8.783082995
-1.669480428,-1.96132214,-2.310835033,-10.4862641,-3.624538403,3.479976404,2.767837163,-4.101758963,-13.42886554,-13.57420542,-3.061935327,5.579904574,-0.81644148,0.052349564,6.471077073,-1.346803774,-0.424164457,1.674614165,8.106386485
-0.935675489,-2.570239206,-3.311596671,-13.47775952,-4.8599119,2.890023221,1.026430856,-7.446528451,-17.54467691,-17.97051152,-6.052306299,2.256133507,-2.326105986,-0.990283511,3.716628336,-4.46835975,-1.249354996,-0.521763595,7.092103283
0.413306034,-2.487753371,-3.185531549,-15.07880742,-5.279759283,1.889666757,-2.063363431,-10.39095105,-20.59219546,-20.07631621,-9.612583195,-1.716554122,-4.735719576,-3.056244843,0.19102578,-7.121576772,-1.780291976,-2.055803815,6.303673843
2.179944926,-1.81971243,-2.151872975,-15.2784142,-5.088882594,0.519779637,-6.063511739,-12.69430857,-22.69202022,-20.56417357,-13.17873918,-4.901547481,-7.73787183,-5.491572094,-2.642350913,-7.9973157,-1.280030481,-2.123595267,6.069285041
4.051562917,-0.80233419,-0.738821602,-14.45027139,-4.532479142,-0.914137998,-9.891865589,-14.09226896,-24.26008323,-20.33262302,-16.10989914,-6.434008102,-10.72821851,-7.33675924,-3.750644979,-6.609632634,0.468153104,-0.530730415,6.333287211
5.653938382,0.413334407,0.586915205,-13.06385405,-3.802047118,-2.019871426,-12.35571415,-14.39129502,-25.53267931,-19.83628567,-17.87199274,-6.363497032,-12.937658,-7.834055739,-3.092832816,-3.538924021,2.97466107,2.242406219,6.770248045
6.572603707,1.804845747,1.634230406,-11.52592471,-3.087192462,-2.530201658,-12.77909125,-13.69310179,-26.42875973,-19.05836025,-18.16709883,-5.294345033,-13.64200029,-6.822735566,-1.47862607,-0.061400714,5.293383446,5.305935062,7.057457864
6.420407505,3.318372218,2.415168646,-10.1919801,-2.645188933,-2.405587505,-11.33167208,-12.51363969,-26.79093004,-17.96049522,-17.01651693,-3.731101813,-12.44617885,-4.793259598,0.086051142,2.571114203,6.555885181,7.768722042,7.082312216
4.988369937,4.676784524,2.906119912,-9.402540704,-2.746035497,-1.791727156,-8.869616377,-11.58935494,-26.68983157,-16.83298796,-14.7845566,-1.716725235,-9.535090622,-2.590726346,1.04210759,3.74818797,6.450634106,9.070653631,6.923975809
2.404647685,5.371638357,2.89628134,-9.391423462,-3.487780268,-0.905604419,-6.416681492,-11.41681124,-26.44969093,-16.1354227,-12.09956246,0.961781684,-5.711179565,-0.971493608,1.461639634,3.657966034,5.337116995,9.102716712,6.645526489
-0.838178441,4.898175415,2.087335047,-10.08027803,-4.631434052,0.053416713,-4.621924386,-11.8398618,-26.34744151,-15.96930708,-9.643621801,4.251834602,-2.105271197,-0.27982927,1.726538697,2.934715484,3.923791415,8.099868503,6.100253867
-4.06338653,3.068465995,0.373473994,-10.94945476,-5.629413132,0.933781075,-3.501769592,-12.03411775,-26.26276002,-15.73000736,-7.855392094,7.544748385,0.355389629,-0.395313763,2.048572912,2.068648547,2.735836346,6.389068587,4.951298269
-6.720148742,0.142647905,-1.951185213,-11.18173081,-5.885957978,1.639482488,-2.561632025,-10.97802905,-25.61736691,-14.36642357,-6.677575071,9.97550688,1.442367556,-0.909332117,2.262348576,0.988669269,1.748694386,4.125996823,2.926246509
-8.630662253,-3.356405341,-4.281741108,-10.08350799,-5.102949741,2.155894784,-1.163813845,-8.132365358,-23.69959127,-11.13891602,-5.511373028,11.14535197,1.770791446,-1.366604917,2.050880721,-0.898474239,0.451353196,1.158438432,0.121552493
-10.00997014,-7.025719744,-6.082231902,-7.54776156,-3.483067306,2.577828686,1.091460609,-3.867977143,-20.15245067,-6.293332344,-3.469119707,11.66642448,2.461937457,-1.427878908,1.374662812,-4.238668021,-1.702925571,-2.891326712,-2.893377823
-11.25059941,-10.86428034,-7.295507276,-4.238492135,-1.650611959,3.08005864,4.151480105,0.65998535,-15.28337879,-1.087932444,0.139643848,12.96891212,4.485730761,-0.923009392,0.693325811,-9.147497991,-4.785501921,-8.331111891,-5.288477548
-12.62615275,-15.20572661,-8.451979735,-1.333989578,-0.338382647,3.801504095,7.516790836,4.10874188,-10.00895857,2.886162323,5.313275368,16.34368449,8.055716974,0.145412915,0.74103229,-14.9114592,-8.199847832,-15.02179292,-6.386565954
