Channel 1 - P4,Channel 2 - O2,Channel 3 - P8,Channel 4 - T8,Channel 5 - C4,Channel 6 - Cz,Channel 7 - Fz,Channel 8 - F4,Channel 9 - Fp2,Channel 10 - F8,Channel 11 - Fp1,Channel 12 - F7,Channel 13 - F3,Channel 14 - C3,Channel 15 - T7,Channel 16 - P7,Channel 17 - P3,Channel 18 - O1,Channel 19 - Pz
-14.64846832,-12.20014386,2.987168351,6.393570217,-5.10711527,4.006399686,21.18180822,14.31145671,18.37955543,13.86936582,13.21097252,10.35502806,2.756852885,-0.352659146,0.580911672,-8.947615592,-9.764184728,2.726470468,-3.852389695
-7.243608645,-1.675160838,9.76462921,14.08260828,-0.729700614,4.970828104,23.27911248,21.84458314,32.45656487,26.99797731,19.66279482,19.86259644,7.735553363,1.739497237,6.748924145,0.428431785,-4.560476958,5.943940874,-1.730852794
0.533066888,8.096514513,13.32352673,17.84191617,2.186618355,4.146521898,19.32391792,23.69640301,38.49998836,34.05704067,22.44445684,27.20790949,12.15554826,3.678718424,9.582117848,9.307257263,1.693438765,7.146375353,-0.008449407
4.735117361,12.92520651,13.13987814,17.49978377,2.401596609,2.517938112,13.23312871,21.15034312,36.47941355,33.99571568,22.75450959,31.36076273,15.55052879,5.291102176,9.355488815,14.66454213,6.016492061,6.81304851,0.31130345
4.201860648,12.03250048,10.82901601,15.07258498,0.58973553,1.538547824,9.412762718,17.6210214,30.80711781,29.74944866,22.84359424,31.81665955,18.10675133,6.770641641,8.153053574,15.80543929,7.26344178,6.204271874,-0.590530915
1.038502458,8.126349295,8.788324336,13.05377063,-1.315823258,1.980277892,9.666831534,15.96379647,26.86056648,25.68998288,23.93227454,28.30327669,20.106122,8.179653878,7.913497027,14.23037622,6.530863909,6.361878934,-1.55245748
-1.239126486,5.147826345,8.508808942,12.63432686,-1.674578147,3.338664204,12.22916523,16.5039583,27.18421366,24.41305258,25.12696255,21.29342933,21.28053012,9.050820017,8.847447521,12.2359173,5.934568422,7.486746962,-1.363659607
-0.374895333,5.465233438,9.754232827,13.1428506,-0.372632975,4.250513419,13.47925084,17.17217313,30.10239458,25.21733144,24.21164796,12.72254098,20.68580514,8.534428085,9.458978662,11.3704827,6.863305243,9.071603425,0.32366302
3.164903358,8.533643165,11.05872124,12.95177584,1.197666761,3.582040495,10.88673801,15.47089744,31.54248471,25.20168587,19.66217207,5.707155655,17.35046998,6.062499039,8.00504926,11.74650934,9.066572762,10.49994804,2.789507142
6.895841391,11.77669873,10.99606884,10.96541599,1.344088621,1.328470773,4.920799584,10.6411396,28.46100949,21.89582139,12.22635027,2.792913282,11.31029503,2.008270249,4.057322403,12.42919224,11.12163657,11.49362205,4.849863468
8.434066461,12.75589274,9.199623482,7.476259325,-0.526267768,-1.365271117,-1.400426878,4.363595506,21.21782438,15.30693134,4.753786246,3.817112412,4.192198655,-2.261976711,-1.139398568,12.36033546,11.69802478,12.05581356,5.745279135
7.283353064,10.88639904,6.457953438,3.831979161,-3.420484647,-3.050177378,-4.788450078,-0.443047542,13.24567843,7.917375591,0.363493821,5.375090911,-1.317067273,-5.112819134,-5.689541033,11.07497498,10.51871748,12.11548611,5.619852353
4.979223687,7.548777786,4.008222254,1.371299758,-5.528215864,-3.006276932,-3.95706005,-1.69354136,8.505248186,2.858879791,0.363084521,3.007967748,-3.001496059,-5.682323526,-8.441139615,8.836499632,8.338176581,11.37851431,5.275629348
3.677236479,4.809905422,2.71653129,0.598382493,-5.587148382,-1.675808957,-0.240231274,0.529693742,8.797569622,1.823855834,3.516051399,-5.01270351,-0.667006697,-4.475244849,-9.533477608,6.327223001,6.153020974,9.642577826,5.469669101
4.452679379,3.952380845,2.761316211,1.205494338,-3.75610581,-0.214775892,3.701822845,4.298455426,12.89393124,4.267500032,7.170432345,-15.21848548,3.504585778,-3.016678036,-9.76309725,4.258713747,4.437846736,7.287831103,6.332769453
6.641726996,4.912018238,3.885912862,2.723673902,-1.357785305,0.429079401,5.918069161,7.417322469,17.88917025,8.265658312,9.308863154,-20.28084964,6.305205246,-2.758639507,-9.544260652,3.132244846,3.028029582,5.367391129,7.320684182
8.575769896,6.791509671,5.79821665,5.052169253,0.220734426,0.17921865,6.383387079,8.969685183,21.50376927,12.09308554,9.919262358,-13.91366842,5.799501528,-4.007004505,-8.54457776,3.137813609,1.605553278,5.018673723,7.654295682
8.937447157,8.744397784,8.283228191,8.335852303,0.547129631,-0.23372829,6.647488265,9.711502915,23.52523021,15.20808385,10.70202345,3.944647917,2.940162401,-5.657270005,-6.324091188,4.103228676,0.222235071,6.567585011,6.857419577
7.608222132,10.41504598,10.99911054,12.37125392,0.30283555,0.067325363,8.412477765,11.17834307,25.4545915,18.0423785,13.47156264,25.76341914,1.149014322,-5.960986739,-3.245952795,5.513564096,-0.649494558,9.097067917,5.009065149
5.465651747,11.73006837,13.31148588,16.23167508,0.550577585,1.414737433,12.22499526,14.33309684,28.87959556,21.06487661,18.58214384,40.51590554,3.912528849,-3.799985802,-0.59899436,6.707821371,-0.539906655,10.9719053,2.616507627
3.512724293,12.49929484,14.4969452,18.6211042,1.7860572,3.392828244,17.17780694,18.79928028,33.9690964,24.08444668,24.57713698,40.79556368,11.99508326,0.4307484,0.375227865,7.2510306,0.567814709,11.0257416,0.30133139
2.175830074,12.3791049,14.24139592,18.75875507,3.551294947,5.201695017,21.62845869,23.13839267,39.20289707,26.35321733,29.2171278,27.91944605,22.36286192,4.962427211,-0.282055323,7.253336668,2.194846592,9.488915066,-1.449887566
1.288670608,11.26019916,12.98003538,17.02551539,4.856630658,6.228054292,24.22856708,25.8021373,42.39112602,27.21167624,30.97991649,11.1230351,29.81939473,7.727579996,-1.00194739,7.326162338,3.749703075,7.853006517,-2.369305575
0.581136559,9.612772603,11.67297011,14.72707326,4.984340314,6.367611542,24.51159692,25.98362759,42.0985363,26.56493916,29.87424059,1.19172948,30.37499787,7.635508751,0.09848154,8.095515569,4.958593499,7.698109758,-2.393090552
0.082318007,8.307360149,11.08725668,13.07655418,3.990297462,5.917512894,22.79608676,23.83609867,38.44030311,24.75850613,27.07813141,3.059394642,23.98122391,5.189978839,3.429503303,9.589722227,5.955549986,9.384707445,-1.642202327
0.048797229,7.951994849,11.14474089,12.21934414,2.546247951,5.225735662,19.7099921,20.10770975,32.82746204,22.08553795,23.8714102,12.75413286,14.59554522,2.066045542,7.142364601,11.01998239,6.998677799,11.68034954,-0.39849426
0.572711605,8.325288476,10.92648264,11.15242817,1.343123741,4.434129208,15.80254826,15.63670547,27.02715807,18.52640461,20.79001565,20.82720667,7.454812934,-0.018038632,8.222367775,11.23092614,8.131893932,12.66723169,0.990799059
1.351030831,8.485508112,9.41519472,8.659137841,0.600610971,3.496680286,11.46576031,11.0929391,22.26649001,14.03995708,17.59197563,19.52377329,5.52023622,-0.345808577,4.764826454,9.554348509,9.125884826,11.23216268,2.287033211
1.905353761,7.551162395,6.414826031,4.496608149,0.060357017,2.376659513,7.052069897,6.99851533,18.88806522,9.0913743,13.87348681,8.230956998,7.693562231,0.509264911,-2.375014204,6.403983079,9.717463327,7.942818481,3.494823207
2.049563711,5.504777396,2.874420824,-0.189035346,-0.619755844,1.186021418,2.95369134,3.790335335,16.56534503,4.76622509,9.677961636,-6.728600146,10.05631114,1.259814706,-9.988842422,3.082215137,9.854127191,4.595382552,4.807866952
2.115124674,3.285112708,0.285100428,-3.625950596,-1.479598991,0.130996369,-0.458289309,1.732315118,14.74062908,2.16020383,5.57140747,-17.37817622,9.073990166,0.859546098,-14.77026871,0.878244459,9.65789784,2.796987917,6.353832539
2.654530091,2.028393578,-0.421240995,-4.765599569,-2.218705196,-0.656481514,-2.947616385,0.744161828,12.95846225,1.469540353,2.213676349,-19.99919398,4.245795857,-0.849749733,-15.65832291,0.137810502,9.139640087,2.734086832,7.927578967
3.855496144,2.087042785,0.402663509,-4.095550765,-2.488783478,-1.207558268,-4.443752447,0.388817715,11.00269329,1.638664579,-0.097334914,-17.04966132,-1.779732822,-3.186668876,-14.38339014,0.056526725,7.99535341,3.121626336,8.966789652
5.21578214,2.696697325,1.380120458,-3.206469893,-2.203547046,-1.620259501,-4.960808813,0.158056083,8.936658594,1.073624417,-1.46794429,-13.9712461,-5.516003296,-5.22045894,-13.78401149,-0.607677433,5.778721586,2.35705071,8.855227321
5.83043574,2.627935006,1.184389444,-3.434724505,-1.574737697,-1.867955604,-4.4937334,-0.094434747,7.141943634,-0.978649464,-2.030308,-13.98069521,-5.346318136,-6.383588862,-15.30225786,-2.456119261,2.377856432,-0.078622759,7.357929798
5.093709695,1.293119702,-0.413849894,-4.692253429,-0.869987155,-1.710871288,-2.987648255,0.079194631,6.318647025,-3.482953732,-1.542568716,-15.39185654,-2.405213419,-6.653609212,-17.73940782,-4.875435334,-1.625766346,-3.117524023,4.848055991
3.219561355,-0.654630363,-2.360640029,-5.471272645,-0.151744039,-0.827359191,-0.390193001,1.502738215,7.325657118,-4.020104604,0.613527457,-13.61031197,0.931310116,-6.260812632,-18.28467818,-6.443559685,-5.112275726,-4.896959709,2.125256081
1.114452084,-1.788577078,-3.145974685,-4.059473553,0.74453132,0.914963014,3.267955376,4.79237614,10.80970885,-0.455936644,4.975214383,-5.824903612,3.431898471,-5.280021665,-14.91933621,-5.99701112,-7.066645177,-4.192297788,-0.051181145
-0.307455532,-1.085332413,-1.98654729,-0.003565853,1.979281088,3.261201468,7.798587385,9.792569781,16.74749203,7.273618099,11.41884859,5.882996053,6.040067335,-3.531339733,-8.16494811,-3.504503004,-7.230522348,-1.342656916,-1.360051546
-0.788132601,1.177728267,0.568830141,5.358846613,3.454923998,5.610438256,12.77370462,15.43472243,24.15979471,16.64153711,18.90046052,15.85033215,10.57750876,-0.902746532,-0.738803156,-0.060603914,-6.222279425,2.033410247,-1.95890027
-0.809735444,3.581695869,3.066526131,9.736471853,4.784889302,7.280854448,17.44459241,20.14277403,31.23379922,23.80032278,25.7155471,19.49248429,17.29769291,2.209940288,4.52703405,2.956210001,-5.006739202,4.24839925,-2.18777304
-1.05349205,4.66724172,4.23250249,11.43685399,5.518125933,7.823608488,20.76481696,22.54830199,35.9031197,25.85295322,30.11879025,17.24301845,23.61779,4.808287492,6.700436112,4.839477057,-4.148671479,4.690167395,-2.232592678
-1.736604872,4.055245173,3.834938712,10.43092925,5.420385071,7.196055686,21.65678208,22.09496673,36.68203115,22.56357114,30.95711273,14.21410811,25.45185688,5.749742394,7.023768163,5.844809294,-3.475831677,4.031224536,-2.044573477
-2.424217438,2.643287397,2.668524948,8.149373662,4.578157908,5.725220165,19.52278136,19.21287599,33.36754106,16.33183771,28.0421969,15.64786034,20.31754793,4.494459671,7.333757483,6.632113628,-2.420570353,3.439756311,-1.544144546
-2.472205059,1.726200218,1.745635896,6.254550941,3.268799445,3.929664507,14.74126881,15.0208478,27.22064937,10.50351742,22.18334058,21.91493233,9.707750122,1.576495623,8.126488929,7.412674513,-0.705300938,3.524428935,-0.857944466
-1.679957288,1.815238816,1.415902978,5.41064656,1.748792755,2.315748236,8.740971551,10.76526998,20.45099524,7.252207423,14.93189209,27.40726731,-1.393497175,-1.61894304,8.033688427,7.596239878,1.277375238,3.890958194,-0.311327958
-0.539666114,2.191223988,1.150156719,4.995965224,0.154703717,1.218930049,3.422105947,7.291766644,15.18560307,6.484330841,8.107478861,24.58666104,-7.740088434,-3.684955797,5.181990979,6.281133119,2.770003112,3.615482359,-0.151601276
0.167443548,1.59272857,0.131663132,3.878056757,-1.434449679,0.702920774,0.150645416,4.773288199,12.42786829,6.382979403,3.186312065,10.19103638,-7.423401971,-4.065114985,-0.797452263,3.176569568,3.390846947,2.1653656,-0.265420413
0.083652266,-0.547259828,-1.888036417,1.515679963,-2.896604674,0.52629737,-1.044436926,2.775311701,11.59751888,5.004244207,0.725525293,-11.32270987,-3.068406595,-3.342830175,-7.954250966,-0.860592195,3.625356605,-0.036116173,-0.192441155
-0.340553464,-3.395739188,-4.217849117,-1.54216018,-4.071904996,0.218676471,-1.461212242,0.603938616,10.97280279,1.683209719,0.113042757,-29.99376718,0.303507333,-2.742945514,-13.22352675,-4.200914852,4.550781717,-1.862533466,0.526390934
-0.155080211,-5.196252134,-5.663762425,-4.110988472,-4.874846632,-0.701133265,-2.809188389,-2.219514645,8.834043827,-2.680641589,-0.107271016,-36.75796107,-0.931074223,-3.224614138,-14.70724142,-5.505856997,6.928157292,-2.325408342,1.953223093
1.319415055,-4.587505438,-5.414823718,-5.311804521,-5.369027509,-2.423982489,-5.962865294,-5.577494886,4.6406243,-6.451247364,-1.375172348,-29.34497137,-6.471796982,-4.836611404,-13.11340163,-4.672821025,10.38148386,-1.316420845,3.670346644
3.891618092,-1.705789974,-3.655228407,-5.167884593,-5.679990176,-4.63637886,-10.25548648,-8.681626464,-0.504793035,-8.401313315,-4.15394131,-13.43102979,-12.66601393,-6.780616603,-11.10433872,-2.920260386,13.38545994,0.318259805,5.100831213
6.562093917,1.829829257,-1.420001811,-4.389565328,-5.801099537,-6.575475416,-13.83644268,-10.3963735,-4.431813737,-8.305915425,-7.4914968,1.543203285,-15.50947024,-8.071772551,-11.05470563,-1.92980938,14.16889418,1.390384353,5.949383302
8.189154844,4.052736313,0.16468382,-3.610546582,-5.501764071,-7.388969054,-14.85453317,-9.833943516,-5.170645589,-6.701356957,-9.47462299,8.586953497,-13.57679741,-8.245655578,-13.05770412,-2.679517249,11.90446894,1.174154435,6.35438958
8.216043765,4.015961345,0.635435447,-2.795018295,-4.494012145,-6.613911031,-12.62976353,-6.893046027,-2.097098802,-4.216466789,-8.368044031,6.957300929,-8.657699326,-7.576990264,-14.81334919,-4.814182825,7.304040906,-0.181200409,6.602937446
6.905229838,2.342435572,0.364067849,-1.34276598,-2.767969149,-4.464885245,-8.003093774,-2.390167088,3.778096428,-1.121877285,-3.722405131,1.336619982,-3.899927879,-6.707939757,-13.47363104,-6.965801809,2.182358211,-1.866345842,6.683004974
4.966810525,0.585811938,0.075318413,1.220706453,-0.793658161,-1.719171326,-2.68073112,2.347369105,10.51362247,2.584209393,3.295556785,-2.229507475,-1.255279065,-6.057679535,-7.930661364,-7.730061179,-1.669659921,-3.022732715,6.13377818
2.961432581,-0.034138715,0.159796778,4.598579318,0.663374301,0.74294648,1.879492974,6.204821764,16.39428168,6.76628386,10.58399007,-0.22069293,-0.349682881,-5.513551488,0.269495932,-6.576268161,-3.472850589,-3.289829238,4.404829705
0.986111623,0.481358183,0.35196747,7.706217628,1.048914374,2.437098683,5.218968623,8.857218965,20.73143155,10.88756331,16.32918841,7.190463591,0.567866658,-4.611772648,8.022895963,-4.104778397,-3.651057767,-2.95767861,1.449718191
-1.159164395,1.031081563,-0.00535818,9.322780086,0.464884215,3.476291613,7.805332077,10.80563331,23.82741019,14.16341907,19.93097396,17.60695551,2.786051412,-2.985371742,12.78454485,-1.593540189,-3.221434752,-2.713879515,-1.995579357
-3.564889654,0.345970306,-1.383310133,8.887069644,-0.350546522,4.354262365,10.33530144,12.83878346,26.27660779,15.98327785,22.02951425,28.44874481,6.175446341,-0.668125985,14.00500504,-0.249715699,-2.964703185,-3.221339769,-4.778601887
-5.979753024,-2.057780018,-3.675608253,6.80852301,-0.561187249,5.491048488,13.03583292,15.29645967,28.24032846,16.2106528,23.69995288,37.71398844,9.811624646,1.964330913,12.90407634,-0.671727002,-3.020715328,-4.793967612,-6.110819622
-7.950929041,-5.613194023,-6.291491415,4.082483546,0.103557544,6.879701826,15.47569603,17.66955527,29.26786931,15.11189492,25.47123892,43.44585694,13.25393609,4.472620472,11.03958947,-2.752222075,-3.106263665,-7.301994953,-6.123988629
-9.164793855,-9.216758666,-8.60731756,1.564243954,1.105632021,8.077124887,16.91938658,18.8477583,28.73540776,13.02931356,26.9048639,43.39641954,16.9641539,6.529010175,9.033385801,-5.906697137,-3.014727734,-10.28314383,-5.69888956
-9.644768317,-12.01347709,-10.37536998,-0.507817602,1.513617443,8.517988092,16.84353167,17.86936719,26.46942626,10.14971574,27.00376768,36.07964782,21.32797515,7.835834888,6.477540723,-9.372784262,-2.883738764,-13.1593738,-5.667323428
-9.632729776,-13.82822459,-11.77210204,-2.414021592,0.772884017,7.905663687,15.20872367,14.66292726,23.0154017,6.604883907,25.08560598,22.6569962,25.31532155,7.963632937,2.872533001,-12.4279947,-3.008779847,-15.45811424,-6.052332871
-9.303785384,-15.00800159,-13.10384135,-4.460257148,-0.794792412,6.407334023,12.38080506,10.25891597,19.35240326,2.785155025,21.42684668,7.700051334,26.40307969,6.427278999,-1.459901162,-14.53864748,-3.433901935,-16.96037197,-6.022964572
-8.619815088,-15.94277526,-14.4692582,-6.576923266,-2.197209926,4.546534168,8.897546391,6.298952995,16.31792736,-0.513379836,17.18487917,-2.646582147,22.30703452,3.093366314,-5.414119975,-15.49522159,-3.752258381,-17.7237351,-4.648080603
-7.470566022,-16.72510632,-15.67547676,-8.363969399,-2.549016528,2.899453934,5.31150334,4.133812741,14.2004636,-2.393958606,13.65329716,-4.432945982,13.24626592,-1.389286381,-8.039166396,-15.50046423,-3.340992526,-17.97439027,-1.826636091
-5.94618975,-17.18886155,-16.45193956,-9.511000243,-1.803466744,1.805437836,2.139235879,4.064580904,12.75257526,-2.506006514,11.38518022,1.043433978,2.624435687,-5.618598715,-9.454751466,-15.10378783,-1.850453882,-17.93474547,1.428374271
-4.438348472,-17.19386058,-16.74390062,-10.18671169,-0.836783017,1.250063678,-0.224651833,5.181991569,11.50093212,-1.55222516,9.80099934,7.491060482,-4.891912716,-8.1200851,-10.84302056,-14.94398541,0.463116527,-17.70622018,3.659690386
-3.427743507,-16.8412043,-16.81812426,-11.02521037,-0.796851862,0.945208876,-1.706180797,5.886357955,10.03321629,-1.161760665,7.558939508,7.491023455,-6.681407441,-8.303543354,-13.47789975,-15.4287929,2.836760781,-17.29633597,4.07878362
-3.130954056,-16.43333251,-17.09398958,-12.6859515,-2.221019821,0.524811531,-2.711664059,4.778693976,8.07614789,-3.038169612,3.465881845,-2.503808464,-4.211756109,-6.963927479,-17.63681709,-16.57019582,4.444692796,-16.7613314,3.192853583
-3.339609395,-16.25862296,-17.84445737,-15.31803575,-4.610187438,-0.250247314,-3.980673038,1.43568157,5.468831025,-7.831525553,-2.623153186,-19.54960754,-1.937044532,-5.825628013,-22.33192486,-18.08741238,4.835366016,-16.31828945,2.383037758
-3.623594751,-16.41591027,-18.99498653,-18.3300526,-6.771590311,-1.355699222,-6.055601901,-3.314077456,2.262418713,-14.45853364,-9.451121659,-35.86106088,-3.674958651,-6.339700229,-26.03969698,-19.65915838,4.057688105,-16.27956754,2.740853165
-3.729195255,-16.80076406,-20.14014821,-20.62383469,-7.629882276,-2.479845606,-8.671067107,-7.712915394,-1.005719545,-20.38047536,-14.76820223,-43.5588521,-9.29088187,-8.582065136,-27.72135389,-21.07071508,2.458597179,-16.80669176,4.113172366
-3.805665954,-17.1907813,-20.72332306,-21.11890972,-6.865427694,-3.131111828,-10.57991951,-9.813923145,-3.129609176,-22.77238114,-16.31080233,-39.20282202,-14.47392239,-11.11230015,-27.23179335,-22.11204792,0.389258584,-17.66443836,5.163287289
-4.238406065,-17.29962546,-20.24311176,-19.23696721,-4.936176922,-2.856446945,-10.11412021,-8.302105354,-2.512890764,-19.95935203,-12.86857433,-25.15955527,-13.98855972,-11.96419102,-24.86908205,-22.36095434,-1.930648959,-18.21255418,4.426435532
-5.232588641,-16.77652297,-18.40286064,-15.11349807,-2.578770146,-1.484565055,-6.231949449,-3.06614403,2.011593884,-12.32108951,-4.918152345,-7.308958339,-5.926084797,-10.06410481,-20.67901272,-21.16553223,-4.344707708,-17.72412004,1.511112854
-6.539355177,-15.26437901,-15.21162981,-9.521018661,-0.289800035,0.741147539,0.642080475,4.690446555,10.23363563,-2.174133602,5.485706545,8.835562094,6.455076549,-6.016014292,-14.36559384,-18.01361474,-6.644929791,-15.86148596,-2.529973546
-7.604461814,-12.61137877,-11.05964022,-3.627722128,1.776484679,3.24395484,8.620836835,12.83738061,20.17854274,7.278109461,15.51160689,20.74313072,16.86844696,-1.664939295,-6.026077121,-13.10639239,-8.580935269,-12.97937424,-5.953095868
-8.033108562,-9.14268904,-6.719878859,1.298027562,3.502086769,5.387844862,15.26939839,19.06691587,28.73042752,13.34634153,22.65889579,28.75263828,20.51229436,1.205717104,2.983897431,-7.657298376,-9.997589958,-10.00822183,-7.576596113
-7.953936413,-5.73130241,-3.177804978,4.204840654,4.500612382,6.78099869,18.84307009,21.72907342,33.0627028,14.8965528,25.64086129,34.00286122,17.43122259,2.027180275,10.05748701,-3.523405972,-10.94416121,-7.956874457,-7.525278726
-7.926395906,-3.473811375,-1.26704602,4.576800628,4.213712555,7.406799658,19.03638799,20.42777013,32.07156859,12.58261231,24.65002273,36.47495258,12.12091409,1.587959256,12.56123581,-2.250876929,-11.61069752,-7.352591612,-6.915716628
-8.433860162,-3.084244783,-1.263731005,2.656604781,2.400116717,7.499830727,16.81723419,16.12987447,26.92703198,8.280392228,20.9618197,34.74353176,9.783116702,1.141741794,9.52643078,-4.12964541,-12.12294977,-7.994334593,-6.824356839
-9.391170777,-4.419617766,-2.708422794,-0.580582997,-0.416310183,7.282795836,13.60078326,10.7349336,20.39038759,4.116843269,16.19164154,27.42543425,12.2824594,1.281685968,2.495751372,-7.964299077,-12.38812,-9.184246284,-7.441832101
-10.11491403,-6.547803689,-4.636810411,-3.77784761,-3.012725263,6.79481805,10.44568347,6.291311991,15.33127356,1.608859504,11.66168177,14.97114151,16.99491983,1.522697721,-5.256670768,-11.81976417,-12.16103385,-10.27517134,-8.088285536
-9.821025485,-8.39771881,-6.129192703,-5.747573268,-4.11639763,5.962006359,7.810161281,4.206271802,13.35799284,1.270334085,8.171542168,0.322407152,19.31210044,0.8924445,-10.67387671,-14.28650045,-11.30052911,-11.1616263,-7.978391746
-8.25397168,-9.559072612,-6.835133216,-5.935595301,-3.19980296,4.839319369,5.855879276,4.790905335,14.32857121,2.741712431,6.128838218,-12.07280442,16.6097562,-1.035162447,-12.64301203,-15.37715405,-9.99081445,-12.38565479,-6.985498713
-5.921762197,-10.62032188,-7.115114224,-4.544119858,-0.822598659,3.775751223,4.826066162,7.303644464,16.87576797,5.22704409,5.743468072,-18.24524275,10.41174331,-3.591682855,-12.27360721,-16.38399871,-8.701689369,-14.78215393,-5.712302023
-3.735818797,-12.73707128,-7.707524777,-2.28843869,1.743992806,3.29088738,5.03826785,10.40590495,19.43171495,7.922842617,7.013971622,-16.5296296,5.081269629,-5.4432174,-11.63752731,-18.77118063,-7.872764501,-18.87491222,-4.849168993
-2.358435106,-16.70410541,-9.180559671,-0.008654796,3.318711488,3.694007667,6.473919333,12.76055981,21.01973184,10.21669793,9.502702471,-8.336620356,4.241696878,-5.642348324,-12.05696621,-22.901205,-7.553021787,-24.38169417,-4.464748007
-1.804921071,-22.20885258,-11.58065677,1.587362473,3.434078107,4.73274293,8.395352603,13.4839905,21.38709857,11.63949041,12.16955327,2.391267956,7.891526911,-4.414516361,-13.28630304,-27.54391182,-7.290929903,-30.12687842,-3.924653999
-1.617858803,-27.83679194,-14.51138155,1.953928769,2.363986594,5.597431005,9.462351754,12.29806845,20.5982195,11.73594392,13.56349801,10.76134866,12.47053429,-3.013248695,-14.10297654,-30.55740804,-6.388071967,-34.44440453,-2.534060293
-1.427969916,-31.84694756,-17.51378298,0.659221938,0.644799416,5.365199742,8.412466686,9.419366142,18.57490277,10.06036091,12.4121495,12.95329408,13.66930921,-2.755125218,-13.63565412,-30.27217999,-4.348546649,-35.89717298,-0.304372693
-1.381358505,-33.16462547,-20.37794977,-2.520859044,-1.429846485,3.61765532,4.869005094,5.346493727,15.0226019,6.384455144,8.306693155,7.906668724,9.642424653,-4.01360159,-12.21187579,-26.59257499,-1.208327345,-33.96035518,1.9015044
-2.03987937,-31.89368697,-23.10406733,-7.32894846,-3.908102586,0.790894686,-0.315773559,0.698832735,9.807248703,1.006676027,2.04104307,-2.121569801,2.164032378,-5.960717776,-11.01665407,-21.03851043,2.4707929,-29.30210396,3.037664569
-3.836782256,-29.03604926,-25.57407644,-12.80646019,-6.854479676,-2.022917988,-5.450764642,-3.847041627,3.45597287,-5.080149558,-4.642051596,-12.58287223,-4.917357619,-7.216387059,-10.92847464,-15.7224242,5.90214901,-23.47490675,2.788991858
-6.573505091,-25.70577137,-27.2890414,-17.44642324,-9.975795962,-3.711797343,-8.864610699,-7.586686215,-2.667936366,-10.36656825,-9.762346862,-18.91672018,-8.439242954,-6.844695524,-11.60109411,-12.01313418,8.431807203,-18.14448287,1.890179666
-9.419094512,-22.46548496,-27.50116815,-19.80409112,-12.599581,-3.783177349,-9.658618194,-9.872277806,-6.75048467,-13.34960833,-11.85930818,-18.89466162,-7.701196077,-4.918325235,-11.61457868,-9.826756033,9.723313817,-14.273061,1.501407465
-11.44177506,-19.2462805,-25.72550289,-19.25667795,-14.05720805,-2.569374153,-7.919652075,-10.27155544,-7.320475555,-13.16190735,-10.41460494,-13.58889337,-4.160815767,-2.294426208,-9.582721304,-7.989545679,9.720072157,-11.7462406,2.135835942
-12.24060681,-15.80438842,-22.24276443,-16.38637642,-14.13322595,-0.887263041,-4.393239701,-8.722297828,-4.005430346,-9.960909652,-5.839352049,-6.301104777,0.247559029,0.095206354,-5.299674006,-5.328869789,8.515309826,-9.689069425,3.081997415
-12.15605266,-12.24525566,-18.13656582,-12.64993118,-13.17084374,0.561084826,0.026576687,-5.568830247,2.206857174,-4.846792721,0.797624374,-0.200573945,4.533037493,1.806975433,-0.000779082,-1.652273443,6.289522615,-7.267986261,2.890903945
-11.89632744,-9.138384815,-14.73602474,-9.495685694,-11.73456467,1.594783892,4.616898226,-1.434727912,9.382523407,0.649139207,8.06760822,3.590206355,8.74105638,2.905504689,4.440960426,2.087694711,3.354511668,-4.416179323,0.592291733
-11.90763985,-7.129711537,-12.81130501,-7.518936101,-10.13665487,2.500412943,8.849267748,2.994634671,15.5196746,5.211400901,14.43073929,6.055013643,13.02130775,3.578534712,6.724157456,4.511769798,0.203480089,-1.93774842,-3.360145624
-12.01709061,-6.394380102,-12.10369204,-6.250587333,-8.260239996,3.624377476,12.28338066,7.13692153,19.40431561,8.167951905,18.52641019,8.599136361,16.8353507,3.813625273,6.830178614,4.8424984,-2.557148721,-0.880687948,-7.2454319
-11.6234088,-6.403087781,-11.55311345,-4.717219709,-5.83902815,4.977726508,14.54269689,10.53177876,20.97262261,9.513645396,19.57247802,11.22603937,19.13062905,3.456826762,5.8112759,3.481004527,-4.409650451,-1.631173779,-9.272952788
-10.2353868,-6.211310543,-10.06963185,-2.331543416,-2.927012007,6.171863905,15.41321217,12.7575816,21.0109464,9.618837811,17.73779568,12.32219193,19.23320997,2.535056922,4.962200355,1.737800775,-5.141185291,-3.438500112,-8.884629957
-7.87740402,-5.057715283,-7.285412971,0.57552263,-0.100170759,6.709036216,14.93215179,13.39814515,20.43637969,8.892740376,14.18930949,10.33956806,17.48890468,1.436533632,5.051164012,0.947517185,-4.919085902,-4.793151347,-7.110786961
-5.029335288,-2.823493505,-3.746802465,2.983825178,1.842085514,6.363846842,13.33717984,12.1831182,19.65810043,7.635254568,10.61099787,5.809687359,14.97251893,0.684329089,6.069094994,1.617215105,-4.164824655,-4.431303298,-5.688348127
-2.197127627,-0.032222941,-0.444339245,3.977050271,2.457874017,5.340759509,10.907187,9.259803763,18.44314184,6.105282212,8.341824095,1.573720239,12.54051211,0.463639485,7.452887977,3.192005588,-3.308298849,-2.224737927,-5.658984352
0.467327154,2.565117393,1.917800393,3.462572524,2.033020062,4.099270458,7.855133597,5.377740666,16.33680096,4.634170091,7.621630308,0.556119078,10.15814434,0.353864516,8.433399681,4.551761965,-2.577480354,0.735547182,-6.583916073
3.143931934,4.475035569,3.339261011,2.246798218,1.398495896,3.014291882,4.381060575,1.744665631,13.2707905,3.585237249,7.458513341,2.748009963,7.152231959,-0.423434938,8.261317269,4.837446416,-1.935442228,2.945626973,-6.993944516
5.950609518,5.661637765,4.337497014,1.409920344,1.309811542,2.154330369,0.805702958,-0.494593325,9.83876012,3.124415795,6.259084909,4.215263236,3.114626567,-2.388774317,6.35773086,4.008245526,-1.16771128,3.569070358,-5.673726491
8.561126491,6.367743581,5.36386403,1.474964197,1.874463509,1.334500294,-2.417207326,-0.909913402,6.963647179,2.979932747,2.841373174,-0.369030495,-1.474834191,-5.327162511,2.550743824,2.766376509,-0.038575626,2.954127336,-2.707410981
10.22207763,6.765692484,6.332034478,2.017890444,2.480117839,0.359792882,-4.918611804,-0.14873689,5.164093331,2.440256445,-2.827398808,-13.13172448,-5.572107565,-8.370080112,-2.632913916,1.960526449,1.575210598,2.204434927,0.563051141
10.2089527,6.753742289,6.647910374,2.009005532,2.267175966,-0.773423468,-6.725434696,0.29731039,3.987695765,0.690283345,-9.636129063,-29.98717727,-8.560735246,-10.58905766,-7.909868043,1.943229026,3.622085359,2.191362083,2.600292588
8.367477056,6.061970377,5.701178481,0.60580783,0.754641126,-1.887911347,-8.366656353,-1.129890723,2.121488541,-2.679071891,-16.02421667,-42.16411536,-10.91902646,-11.61145272,-11.67879143,2.360701524,5.889541368,2.848368288,2.85470211
5.290707302,4.562432926,3.401951496,-2.2141134,-1.86794536,-2.81615289,-10.58057383,-5.155236011,-1.777555382,-7.321769053,-20.84784415,-41.86926251,-13.803052,-11.75191556,-12.83934567,2.510298642,8.079360797,3.335595147,2.102378916
1.968034443,2.510244037,0.322689196,-5.638630196,-4.961876648,-3.578518777,-13.74977903,-11.18448587,-8.038454223,-12.20725512,-23.83410125,-28.17880787,-17.79471369,-11.57962378,-11.46190473,1.969759308,9.918856768,2.90901921,1.702665686
-0.834003318,0.497329574,-2.662624775,-8.591427738,-7.922205244,-4.37260033,-17.45953278,-17.52871781,-15.44231164,-16.09246902,-25.39099621,-8.546922124,-21.92469039,-11.33285275,-8.758450961,0.998613853,11.26223439,1.709546075,2.436319402
-2.991240235,-0.8759289,-4.947233168,-10.42277701,-10.48884654,-5.368271922,-20.54422023,-22.20077231,-21.62545232,-18.10139138,-26.01942997,5.694824315,-23.96169021,-10.71165299,-6.285044638,0.383368549,12.11999399,0.741347766,3.900084532
-4.944152633,-1.387927338,-6.524645539,-11.21240645,-12.65897743,-6.478231658,-21.65164755,-23.81290117,-24.23276699,-18.05419011,-25.81596468,6.915889338,-21.90655683,-9.224340491,-4.924044883,0.820857874,12.57975076,1.008071648,4.928692664
-7.218369959,-1.363354567,-7.850055295,-11.51857974,-14.36153556,-7.305977314,-19.974897,-22.09208822,-22.13740374,-16.38131792,-24.41569368,-3.645360449,-15.55188247,-6.758076857,-4.410550653,2.299114108,12.65819288,2.532421858,4.641959427
-9.92885227,-1.483474911,-9.370953446,-11.83610638,-15.26661846,-7.339076472,-15.68104608,-17.81542433,-16.00714541,-13.7534548,-21.3578469,-17.00146006,-6.833131116,-3.843639484,-3.754637788,3.966513026,12.19963112,4.139917104,3.211902944
-12.62339531,-2.33913969,-11.10674425,-12.20347147,-14.95390823,-6.266614105,-9.795674084,-12.32425091,-7.927452802,-10.72565278,-16.56227326,-23.01700692,1.343837597,-1.365019031,-2.187859726,4.638423259,10.93274146,4.278326847,1.714808853
-14.53136983,-4.003213648,-12.5860607,-12.22096268,-13.30226148,-4.204140142,-3.684982663,-6.955738645,-0.366019198,-7.615798804,-10.57720193,-17.53869386,6.878613548,0.034881981,0.159052408,3.613274252,8.686337812,2.26197218,1.220350638
-14.99190211,-5.902582101,-13.15558755,-11.39401177,-10.72701555,-1.674154365,1.493420054,-2.656256844,4.903417263,-4.601999196,-4.460023392,-4.768518449,9.487638733,0.336598748,2.390657181,1.20962162,5.619264599,-1.078669149,1.900248379
-13.76361227,-7.096110342,-12.40559324,-9.493988244,-8.004344211,0.642632143,5.077129211,0.162395606,7.380960522,-1.844676962,0.60821986,6.643757309,10.29049944,0.005180395,3.627447744,-1.39636651,2.266151015,-3.926060347,2.896935982
-11.07418857,-6.815883227,-10.41264646,-6.684515861,-5.786618854,2.226080795,6.895375367,1.602248717,7.750125631,0.530755181,3.759144447,10.44095181,10.52338508,-0.500118934,3.717244091,-2.956703867,-0.688470401,-4.82060668,3.04125525
-7.47538226,-4.953738261,-7.675570774,-3.398468453,-4.201072034,2.919458665,7.145821262,2.163315643,7.304903821,2.558866869,4.736511367,7.06851637,10.57783834,-1.091984562,3.254687488,-3.014226844,-2.785052929,-3.775352634,1.810244316
-3.648470133,-2.185812481,-4.844886173,-0.138305077,-2.871320825,2.921424869,6.298691773,2.526243512,7.241338113,4.472865532,3.956786492,2.259779124,10.10949034,-1.970080779,2.93221756,-2.211187402,-4.047807619,-2.268747552,-0.25396331
-0.234891411,0.367771226,-2.444126321,2.638837719,-1.344772599,2.60513116,5.010387239,3.226196066,8.114036939,6.508867624,2.303731671,1.436657464,8.882078598,-3.215132164,2.85790665,-1.801217267,-4.921090881,-2.106491817,-1.972960473
2.326499719,1.764925942,-0.717272013,4.546334172,0.442003796,2.290090521,3.936390295,4.325445188,9.628474534,8.563238496,0.704948502,4.791487623,7.333520562,-4.519137583,2.493613707,-2.712704471,-5.912989872,-4.042489318,-2.424425146
3.965481511,1.770796465,0.387248147,5.316696347,2.063671967,2.094859622,3.433968751,5.305347824,10.82211527,10.00406456,-0.353757855,7.170641166,6.201180335,-5.383364248,1.270014013,-4.861925482,-7.208158166,-7.235463035,-1.572681156
5.062214507,0.957112817,1.148127241,4.939830063,2.960397887,1.933531404,3.337226976,5.345630272,10.57663764,9.904513596,-1.118390223,2.769063498,5.570861852,-5.641139224,-0.728068208,-7.242180737,-8.546064235,-9.944991485,-0.175070078
6.306981293,0.297095758,1.948361015,3.797999175,2.937953816,1.634350327,3.043848351,3.907280147,8.264097948,7.658476692,-2.424183005,-9.392035171,4.411813741,-5.785757704,-2.71418538,-8.729077454,-9.45471287,-10.88939644,0.886984686
8.307760166,0.510477082,3.097390165,2.612222914,2.372209969,1.097982076,1.956480035,1.255804883,4.204597853,3.582634531,-5.104597545,-23.8753832,1.306811687,-6.687875044,-3.912348354,-8.979441042,-9.642496117,-10.18780677,1.264153626
11.13111254,1.588873806,4.632209831,2.116345097,1.92375679,0.398918414,0.005906979,-1.492922406,-0.370505369,-0.985928378,-9.266633984,-32.56570424,-4.057264768,-8.822918721,-4.39213927,-8.704328524,-9.218661297,-9.17324847,1.268438195
14.09677568,2.821848639,6.20905652,2.611409298,1.986808392,-0.231674233,-2.163921999,-2.942442398,-3.914124305,-4.289423097,-13.94040691,-30.77399012,-9.961829279,-11.63331648,-5.174702316,-9.064510593,-8.552805451,-9.272485654,1.444104271
16.04076645,3.308668689,7.213688617,3.7170867,2.330217976,-0.5352963,-3.567640809,-2.290346504,-5.413429062,-5.132679339,-17.45160037,-20.79526929,-13.35645217,-13.64497225,-7.345560538,-10.62889942,-7.888329887,-10.86134716,2.010450854
15.94902013,2.60515386,7.1012602,4.555922388,2.239375789,-0.392157925,-3.593924248,0.082126485,-4.957177742,-3.603462084,-18.38755387,-10.06979987,-11.94552876,-13.38879553,-10.83534496,-12.71758947,-7.044087003,-12.97307618,2.668891409
13.57127736,1.056481492,5.784841812,4.307357624,1.061761257,0.081765945,-2.534869648,2.757843983,-3.612308318,-1.006840282,-16.55164468,-5.444755956,-6.142611167,-10.49488197,-13.96854868,-13.70394236,-5.485598552,-14.03256385,2.911671663
9.596943429,-0.41807376,3.789044184,2.77588777,-1.265734649,0.578146838,-1.48402111,4.129799641,-2.660202803,0.984416663,-13.21346213,-8.117128837,0.737700578,-6.112691145,-14.37244204,-12.1351514,-2.755904778,-13.00589275,2.525833723
5.260717064,-0.941073678,1.999249367,0.573390093,-4.109658808,0.765913588,-1.613064315,3.409758985,-2.712613539,1.408315258,-10.3958095,-13.20589606,4.423254314,-2.279732625,-10.72761805,-7.882314321,1.042955673,-10.10177551,1.831938802
1.643801262,-0.268170257,1.122604616,-1.22575236,-6.518135622,0.488112144,-3.319173021,1.134598758,-3.334497041,0.596999533,-9.619180439,-14.1431951,2.474736501,-0.65818049,-4.036850684,-2.45461915,5.092763745,-6.580085893,1.443316463
-0.854541005,1.048638323,1.222930562,-1.72470864,-7.77989624,-0.13645842,-5.859360704,-1.153923274,-3.432651459,-0.112256627,-10.94608597,-8.261474658,-4.08210664,-1.543162534,2.687334162,1.810409867,8.178121191,-3.917703201,1.748761163
-2.539566104,2.027458468,1.68333724,-0.703707845,-7.752574675,-0.770307112,-7.747721235,-1.821006748,-2.095148115,0.691153691,-12.98816352,0.895017887,-11.45417914,-3.827421438,6.260428903,3.155508893,9.29336992,-2.990711937,2.552983709
-3.978753424,1.893115036,1.659019263,1.338315884,-6.767875838,-1.034059942,-7.646755847,-0.038326037,0.759646797,3.567378995,-13.86601013,6.318794196,-15.55140382,-5.869978717,5.428581976,1.444034899,8.150049204,-3.789325901,3.173069386
-5.45925267,0.557943983,0.713856934,3.57697067,-5.263652691,-0.691627881,-5.150964839,3.862904354,4.381579535,7.903995412,-12.44200953,3.133945603,-14.41999621,-6.562726683,1.693679957,-1.872552366,5.279126563,-5.692342644,2.915794441
-6.743611681,-1.347490264,-0.822877576,5.372441968,-3.47436581,0.259356738,-0.975599207,8.703084117,7.755302201,12.32989055,-8.983688381,-7.336795372,-9.008164339,-5.828954102,-1.776773155,-4.794685834,1.705516215,-7.935765501,1.564093274
-7.264353223,-2.871905162,-2.051205446,6.544173856,-1.405896262,1.618669823,3.494450101,13.12066649,10.21944681,15.50374723,-4.870333758,-18.15180496,-2.016424978,-4.323029153,-2.378365041,-6.055084572,-1.562599229,-9.902184266,-0.487740157
-6.566634877,-3.280019,-2.112287761,7.282898973,0.950775182,3.083509264,6.927616257,16.1471478,11.6494142,16.73965315,-1.65993744,-21.54229408,4.00432979,-2.746391022,0.174426028,-5.752955905,-3.920759443,-11.15004963,-2.522298623
-4.6558739,-2.395676122,-0.774716127,7.854308525,3.406288309,4.342851901,8.580145211,17.43191707,12.15955713,16.15179845,-0.239332663,-14.40720113,7.815421137,-1.413066536,3.796605939,-4.981574194,-5.265429325,-11.37114665,-3.964150579
-2.022283521,-0.594720051,1.420306843,8.363685767,5.564450224,5.133091933,8.416702446,17.15648237,11.72995006,14.38445378,-0.602927324,-0.629620734,9.313802904,-0.353011151,5.635211724,-4.838517348,-5.845851914,-10.46610432,-4.673582557
0.627941895,1.469447912,3.534065954,8.736673393,7.018243307,5.275900461,6.910292837,15.83228232,10.20213227,12.22567438,-2.240133548,11.27753725,8.64691437,0.307758193,4.090814789,-5.611347218,-6.033311715,-8.70625349,-4.890797296
2.717713676,3.195293713,4.827524362,8.859474859,7.571315523,4.728659612,4.758934882,14.11352378,7.678830897,10.34662669,-4.650682954,13.46433754,5.732892788,0.193515948,-0.185273133,-6.711452176,-6.143713446,-6.763608203,-4.932771821
4.0088147,4.2462287,5.15408659,8.705549719,7.304464157,3.634774737,2.66910617,12.61412919,4.889388589,9.191337232,-7.51750422,3.478093043,0.688693682,-1.014990135,-4.903337162,-7.29801591,-6.34833254,-5.446320462,-4.90904901
4.613038125,4.609351488,4.920612331,8.33793031,6.461926834,2.315584492,1.192278068,11.68149062,3.013091549,8.90489874,-10.48987667,-14.37370713,-5.389994762,-3.090323742,-7.743097899,-7.006423281,-6.639533057,-5.234227753,-4.662486024
4.881221516,4.558691396,4.730564191,7.828471944,5.288076527,1.157033057,0.550513787,11.18965221,2.903866285,9.249113769,-12.95199089,-31.51425243,-10.33658305,-5.1161751,-7.724514598,-6.171861134,-6.826529843,-5.926580536,-3.936049557
5.270294543,4.577487888,5.023924038,7.216269647,3.960929038,0.420626405,0.486639683,10.52930548,4.262345987,9.606954088,-14.17948382,-39.67597547,-11.98433699,-5.968028893,-5.464109142,-5.402237366,-6.577547834,-6.680859326,-2.597073003
6.216689266,5.232331605,5.948734968,6.560717023,2.645206068,0.089691553,0.285616465,8.919373055,5.501120208,9.213332003,-13.89125879,-34.95033903,-9.755697984,-5.130790427,-2.378376112,-4.906405895,-5.530901807,-6.452120733,-0.741144322
7.985213135,6.968216272,7.447354624,6.009190659,1.554744652,-0.130332435,-0.924026175,5.931835785,4.599886322,7.582253859,-12.74761422,-19.39613598,-5.466378378,-3.20191113,0.369248103,-4.178209653,-3.451468089,-4.55839801,1.37171413
10.49342374,9.855457759,9.361347901,5.748287319,0.903340503,-0.630247635,-3.677385543,1.894156012,0.461421975,4.868166984,-12.26075607,0.221810966,-2.482460072,-1.605292778,2.376436318,-2.334286678,-0.358898948,-1.026355493,3.454767608
13.20176018,13.4168307,11.40775881,5.813492952,0.744807155,-1.637707633,-7.772753592,-2.16060591,-6.201759646,1.847411024,-13.99052596,15.65979465,-3.61243127,-1.645263249,3.770155978,1.135650566,3.442131878,3.449826261,5.278318917
15.20132145,16.69107635,13.08639993,5.906081162,0.839607939,-3.052010606,-12.25105076,-5.03694341,-13.15961072,-0.554943717,-18.48822287,20.81541852,-9.163708113,-3.572922587,4.672416135,5.788062787,7.437084486,7.841219961,6.655748227
15.54773857,18.5852473,13.7203715,5.431359412,0.702605923,-4.489651838,-15.81819899,-6.082643619,-17.99842344,-1.896075827,-24.73713498,14.19862272,-16.5805609,-6.367364827,4.94146414,10.2783793,11.02482251,11.17559905,7.398736151
13.71835374,18.38110384,12.7483791,3.832124462,-0.143007299,-5.51255824,-17.47935712,-5.571978491,-19.57501237,-2.521915555,-30.55814471,-0.724093438,-21.98678675,-8.414417085,4.381928805,13.04203962,13.62394086,12.80969911,7.339996912
9.941486465,16.12268558,10.13495123,1.035142497,-1.85180354,-5.883497064,-17.01262759,-4.489383344,-18.5709475,-3.267400246,-33.78822478,-17.38039444,-22.61005197,-8.601291283,3.124409728,13.14743767,14.7478466,12.54829215,6.446857117
5.17759546,12.64033071,6.577497936,-2.325935773,-4.096882613,-5.678196015,-15.02218933,-3.863257163,-16.799058,-4.736491438,-33.48878687,-29.22245672,-18.46796587,-7.049908701,1.728416471,10.76330646,14.08443241,10.65766717,4.938344459
0.723915013,9.165729198,3.267555463,-5.140552893,-6.186070286,-5.190169494,-12.5802698,-4.118258628,-15.83308773,-6.713462565,-30.40901911,-32.59226012,-12.24820531,-4.994636639,0.857234192,6.978064465,11.60594883,7.793447066,3.276567619
-2.356514976,6.741279158,1.281977243,-6.414409217,-7.391105135,-4.709606035,-10.69338669,-4.881477984,-15.98525984,-8.199420693,-26.43322007,-27.91627219,-7.554558086,-3.931007511,0.798199295,3.152322663,7.667616019,4.811401678,1.977896555
-3.670417604,5.758539889,0.989520056,-5.844994103,-7.294324894,-4.335160168,-9.874486813,-5.32943187,-16.31982124,-8.098516426,-23.40774309,-18.7700709,-6.711602435,-4.646031962,1.254765101,0.251873796,2.999281683,2.462114096,1.330230612
-3.566792342,5.88234778,1.891672722,-3.976660981,-5.964334204,-3.938458665,-9.988001722,-4.779518904,-15.56798788,-6.056040117,-22.10696598,-9.581162867,-9.474370668,-6.759583831,1.592505781,-1.458754094,-1.476369833,1.08520287,1.199321384
-2.836315256,6.377992593,3.020750736,-1.818421439,-3.894799946,-3.286139323,-10.38072271,-3.101025353,-13.16445565,-2.801171457,-21.94257017,-3.439466474,-13.30229481,-9.005713008,1.323748651,-2.279063594,-4.95438118,0.496371014,1.076518109
-2.235537876,6.615874141,3.613067506,-0.193231908,-1.775709574,-2.222654739,-10.21484753,-0.714327824,-9.633513354,0.290991499,-21.50521331,-1.179858192,-14.89378217,-9.996886877,0.431378237,-2.690337366,-7.032241872,0.18377228,0.372309508
-2.107364577,6.437831832,3.578892612,0.723373821,-0.225543836,-0.794596625,-8.883023619,1.727030551,-6.139588725,2.105640829,-19.52765884,-1.863786548,-12.05213538,-8.97588144,-0.69016356,-3.011628503,-7.802609927,-0.281225247,-1.206795465
-2.281469943,6.181839519,3.458444224,1.371291057,0.413432604,0.747486256,-6.360157609,3.685886165,-3.664486634,2.489915719,-15.67802792,-3.857753165,-4.920955929,-6.163536192,-1.550585955,-3.264231166,-7.699009212,-0.896107519,-3.429333202
-2.262638574,6.391411351,3.946478222,2.35047583,0.17082553,2.054214444,-3.325808792,4.90072266,-2.474297805,2.241162513,-10.77745997,-5.594360297,3.957962855,-2.601849639,-1.824408521,-3.241258088,-7.197212116,-1.203296004,-5.608427768
-1.563396507,7.426717317,5.372583107,3.913463209,-0.577407388,2.824025119,-0.93474479,5.343699706,-2.200839851,2.426062636,-6.403488134,-5.771487437,10.75386498,0.353327119,-1.37695642,-2.678882517,-6.561925506,-0.622578783,-6.940005524
0.013201189,9.228457596,7.509998779,5.77905133,-1.256943921,2.922237409,-0.273004254,5.11554148,-2.334057592,3.572807379,-4.147466321,-3.460446696,12.13711013,1.632472819,-0.164034987,-1.428203541,-5.781165023,1.099082785,-6.916381453
2.277481184,11.35911474,9.791410937,7.361592426,-1.342270209,2.427586031,-1.755545388,4.389691996,-2.65351564,5.333552655,-4.904716227,1.38875014,6.970407417,0.908069296,1.754369705,0.430996836,-4.69026411,3.654747015,-5.578618438
4.765508287,13.26057028,11.69686551,8.188868639,-0.623719093,1.59050245,-4.834914757,3.38947378,-3.287822077,6.808410174,-8.498308566,7.260941692,-2.91354845,-1.261901093,4.018414029,2.572960018,-3.162537239,6.335181479,-3.471048528
6.975403412,14.54875623,12.99928064,8.172405803,0.636343483,0.716077356,-8.257807435,2.313488913,-4.467253638,7.206881243,-13.76030175,11.08755177,-13.35003464,-3.674410759,5.826109864,4.538857091,-1.221826615,8.461010131,-1.337126776
8.593759714,15.17784392,13.73950176,7.561332965,1.772859964,0.016583884,-10.76345615,1.196933989,-6.268499768,6.314535024,-19.00582724,9.62189012,-19.74927835,-5.035972771,6.173944762,5.973310603,0.984847028,9.782282644,0.261576683
9.599368227,15.41402914,14.05744058,6.688120685,2.020260761,-0.494736515,-11.79458479,-0.174034372,-8.569143159,4.467622984,-22.69228643,1.704678348,-19.39571259,-4.594489218,4.523794354,6.885585523,3.303503165,10.58303224,1.191609381
10.20433223,15.67122261,14.09192111,5.759711324,0.910367979,-1.000579049,-11.74890572,-2.151748567,-11.17189874,2.176506422,-23.99483554,-10.18505058,-12.89802369,-2.520201622,1.474209558,7.756692027,5.669053206,11.45119258,1.736637366
10.67839501,16.30674686,14.02083972,4.853159382,-1.451033145,-1.751274434,-11.60463887,-4.921086972,-13.90301742,-0.207883662,-23.07286801,-20.66324365,-3.894438981,0.197674788,-1.1949261,9.345251767,8.098760586,12.88926162,2.354241361
11.15887631,17.45230363,14.11003166,4.051405018,-4.392750874,-2.876741538,-12.19748941,-8.201384947,-16.57332546,-2.516772724,-20.93903672,-24.53108922,2.911179608,2.297815603,-1.403230461,12.21862109,10.58099874,14.99981795,3.347934014
11.54963885,18.9158237,14.59758379,3.520250126,-6.974007013,-4.258624379,-13.67022134,-11.22289641,-18.89294975,-4.558816736,-19.01172276,-20.35040518,4.277380434,2.909956112,1.833547,16.25502501,12.931139,17.38387459,4.640399798
11.56061052,20.17904186,15.42161476,3.406157551,-8.404718318,-5.558368534,-15.46534737,-13.0733625,-20.51505821,-6.000164553,-18.54918404,-11.85757383,0.025698881,1.92666606,7.44228445,20.45761677,14.71554953,19.25661889,5.777442021
10.86486028,20.52582945,16.0323892,3.644694005,-8.366545035,-6.396648403,-16.80533783,-13.21864246,-21.24766506,-6.532854792,-20.1783862,-5.832948706,-7.205431932,-0.115862391,12.59160724,23.28408033,15.32142488,19.71726396,6.171590708
9.293103745,19.31679801,15.56286648,3.901185898,-7.085230533,-6.570325348,-17.24503768,-11.83107734,-21.25488267,-6.201258488,-23.66329252,-7.598880205,-13.79106828,-2.496344541,14.26473102,23.38316395,14.18563127,18.10462307,5.464722957
6.971897942,16.34408406,13.3775366,3.775807745,-5.153033343,-6.160063367,-16.871347,-9.67134694,-21.01038123,-5.530656733,-27.9690755,-17.24877883,-17.28221127,-4.732133487,11.16847128,20.34450568,11.10849658,14.35332543,3.810368341
4.34116579,12.09535428,9.662273622,3.15814837,-3.223452231,-5.457250365,-16.05517038,-7.593977844,-20.96022448,-5.226666745,-31.61065731,-29.40664539,-17.52678194,-6.67477227,4.678561235,15.01550745,6.500530232,9.204871233,1.894777954
2.038505826,7.724776361,5.576714094,2.433702263,-1.735919748,-4.769650515,-15.03883285,-6.029165166,-21.137446,-5.605395931,-33.20997191,-36.84382621,-16.17710365,-8.291447904,-1.910313636,9.172515367,1.391637599,4.094426739,0.64036398
0.688872187,4.644757793,2.73909681,2.312116391,-0.781491179,-4.250188337,-13.74905222,-4.806168879,-21.07058711,-6.222295247,-32.09431897,-35.43502289,-15.13552241,-9.41342565,-5.410791053,4.709537368,-2.882614681,0.636395103,0.717743347
0.674757239,3.882174106,2.302946693,3.338401471,-0.141036806,-3.865382987,-11.98659693,-3.417146547,-20.11799786,-6.085916871,-28.67486164,-26.89933896,-15.13706989,-9.731018409,-4.710572093,2.78506358,-5.226163566,-0.12349979,2.134186474
1.97707826,5.539884713,4.237305164,5.431601037,0.54125425,-3.503273964,-9.785881151,-1.491828697,-18.00032721,-4.393806828,-24.35093781,-17.38419347,-15.43002838,-9.055667015,-1.350865631,3.375946904,-5.292093467,1.710021929,4.164589661
4.162806433,8.705511472,7.33265064,7.822086389,1.530505902,-3.112009746,-7.582594387,0.87834695,-15.11110525,-1.268654711,-20.87950373,-13.01000708,-14.64022426,-7.593882876,1.663377347,5.437547523,-3.649010325,4.869186553,5.714254727
6.544987899,11.91000678,9.956220285,9.480188026,2.823018221,-2.74831461,-6.00646711,3.176942521,-12.34418467,2.098311394,-19.47792222,-15.67818476,-12.06544587,-5.940433926,1.971448328,7.530770433,-1.461449947,7.578104085,5.93549919
8.462290157,13.89351973,11.04013559,9.752328536,4.111605708,-2.505371531,-5.459897755,4.782746133,-10.56327054,4.078719037,-20.17646005,-22.12234659,-8.418807919,-4.738878518,-0.59023052,8.551438628,0.16092345,8.530893339,4.732170617
9.553073893,14.22269519,10.62145049,8.748049876,4.93269632,-2.400581012,-5.839261475,5.311922513,-10.12178609,3.60906203,-21.86749144,-26.67316998,-5.508677242,-4.262021047,-4.037980149,8.192451242,0.757252823,7.590417672,2.82331192
9.882377032,13.38835287,9.596924164,7.200536747,4.935253778,-2.337554322,-6.631490595,4.76532164,-10.77691935,0.862943754,-23.07440959,-25.487206,-5.105853534,-4.255812837,-5.787047814,6.951153782,0.679622775,5.755703223,1.304698619
9.847218432,12.35388771,8.940720334,5.920408216,4.120381285,-2.185197299,-7.292136777,3.457564883,-11.99409453,-2.872349419,-22.94501823,-19.10580206,-7.765042047,-4.178232217,-4.545424702,5.739784602,0.736270039,4.430669829,0.980060511
9.910526249,11.8873296,9.005870176,5.264420634,2.888520206,-1.905287357,-7.579217671,1.85539283,-13.32291599,-5.999878861,-21.76410021,-11.69560712,-12.34367985,-3.632352036,-1.213419915,5.339214072,1.582905061,4.502479577,1.898633588
10.32100881,12.13331264,9.411037041,5.008355528,1.833413511,-1.60981323,-7.583500132,0.443636512,-14.52258212,-7.512248145,-20.59844188,-7.875110865,-16.49484597,-2.633881326,1.794518123,5.985535683,3.301945756,5.851215241,3.400412618
10.98826376,12.67831046,9.51903164,4.677653754,1.389074301,-1.487599888,-7.4887589,-0.377263348,-15.41098084,-7.394893824,-20.34565958,-9.646391312,-17.84468901,-1.509369618,2.260790229,7.292102246,5.452648033,7.579955445,4.61787851
11.58173418,12.99096821,9.051550784,4.025774148,1.552889574,-1.656475361,-7.338300027,-0.424471287,-15.71288154,-6.370045976,-20.95231068,-15.52497304,-15.22042998,-0.552201302,-0.320201106,8.532065761,7.504418915,8.731907892,5.064951864
11.77308814,12.86188453,8.320025801,3.252582589,1.877485902,-2.068426427,-7.052024073,0.109087193,-15.1870659,-5.306203282,-21.46779076,-22.06699142,-9.30296682,0.227749158,-4.43950494,9.115309283,9.270061212,8.943212826,4.897229451
11.44907535,12.51160012,7.91268483,2.794932906,1.751082374,-2.55436355,-6.666246071,0.604533229,-13.99884956,-4.77801857,-20.93325785,-26.26356344,-2.377173608,1.025928109,-7.605170681,8.979778819,10.97247188,8.587665656,4.687950405
10.75292454,12.32918512,8.144653223,2.892392661,0.787918931,-2.973629049,-6.518148236,0.23019029,-12.96728107,-5.010644746,-19.38119583,-26.99531734,2.715577119,1.919720227,-7.926577663,8.652159062,12.89589495,8.386947071,4.930548143
9.942481468,12.50076302,8.761313976,3.321712577,-0.92695349,-3.335732493,-7.114393576,-1.589103028,-13.3031262,-6.05118172,-18.05336221,-24.87559241,3.932259209,2.627442164,-5.181622689,8.919916122,14.93232255,8.844789883,5.666587109
9.183837068,12.85068998,9.147154028,3.546920861,-2.89048316,-3.776145553,-8.709036903,-4.695527282,-15.83811558,-7.843318063,-18.52898508,-21.19322131,1.02319792,2.619763353,-0.755006614,10.3026741,16.43651359,9.932073426,6.506094176
8.433987403,13.01163888,8.850586029,3.173252317,-4.47634231,-4.388713852,-10.91619273,-8.067037193,-20.23165847,-10.07180596,-21.36301233,-17.11471259,-4.357694129,1.537799284,3.359010926,12.66088144,16.55859994,11.19370175,6.973283141
7.486352449,12.75079229,7.968789432,2.324339686,-5.260350641,-5.046598491,-12.71747233,-10.21427529,-24.79875982,-11.98097566,-25.32383315,-13.6283537,-9.510360071,-0.422063212,5.733588528,15.21575872,14.82820535,12.11123052,6.854771108
6.128823064,12.15559583,7.064227107,1.610112986,-5.173195243,-5.372073946,-12.94073842,-9.935364601,-27.24224038,-12.50538211,-27.94187654,-11.74978416,-12.05794143,-2.501338051,6.131092373,16.99362593,11.54340208,12.40915588,6.25923463
4.293578937,11.52223717,6.687418529,1.681911947,-4.42766544,-4.913118821,-10.91469237,-6.982834401,-25.92864109,-10.81811268,-27.08223038,-12.26063882,-11.05805551,-3.795924484,5.325847248,17.41488356,7.65568913,12.11450209,5.378908011
2.106980045,11.06218345,6.912641252,2.713009597,-3.331052861,-3.427528136,-6.85591501,-2.22351188,-20.90945441,-6.988594983,-22.41880858,-14.92780181,-7.234502145,-3.792583552,4.428216974,16.6326306,4.22792875,11.41658971,4.220692168
-0.162513971,10.70411725,7.27731734,4.216983122,-2.14190522,-1.08463028,-1.743983162,2.803156798,-14.00894583,-2.225894558,-15.7071998,-18.00257894,-2.268100347,-2.625158608,4.233408752,15.38626567,1.86281381,10.50764843,2.598000293
-2.19274804,10.17843588,7.173168654,5.36011189,-1.043620681,1.558978114,3.185233154,6.637225849,-7.904401148,1.598859593,-9.646646819,-18.86785369,2.304207864,-0.886351573,4.94737063,14.47067287,0.500236969,9.527502525,0.418642617
-3.672426521,9.310886921,6.36086757,5.540943462,-0.181346749,3.804255238,6.958207148,8.503479379,-4.774408304,2.937473367,-6.190242718,-15.76849293,5.811044999,0.809017073,6.297342358,14.19304461,-0.32452608,8.586446262,-2.002473675
-4.33864876,8.254025477,5.18278697,4.803942143,0.336673429,5.127162622,9.096165054,8.466508528,-5.32594692,1.42919956,-5.549527334,-9.41562996,8.362091126,2.141186025,7.804321889,14.19539586,-1.021897786,7.766021876,-3.947905097
-4.025417081,7.429360803,4.30326894,3.783977877,0.502174981,5.383393494,9.545623034,7.159281542,-8.700120059,-1.943826445,-6.538202523,-3.013882333,10.18570166,3.06892156,9.003664794,13.75364361,-1.661163808,7.062363845,-4.70879212
-2.741175225,7.205849745,4.193130388,3.236186288,0.457464926,4.79951763,8.514704159,5.35047901,-13.16821556,-5.512791897,-7.814763577,-0.325236477,11.06763143,3.590314433,9.553737334,12.32160291,-2.032096537,6.350119005,-4.117877033
-0.733474322,7.582025966,4.774632861,3.509203773,0.431407843,3.787124599,6.401667563,3.619879419,-17.09343075,-7.926572872,-8.915467337,-2.992458649,10.44384945,3.585209639,9.28962466,9.924659835,-1.917915599,5.464823602,-2.755001192
1.534404898,8.154068902,5.500435198,4.340407482,0.554233093,2.71132768,3.798909576,2.237669586,-19.60429952,-8.826408663,-10.25668799,-9.147670571,8.089031988,2.930382961,8.2675264,7.138555305,-1.288268033,4.38818438,-1.592008632
3.530040282,8.41891906,5.785355532,5.090300657,0.68058312,1.744799141,1.405690357,1.180338529,-20.7302458,-8.799752947,-12.25326611,-14.53704558,4.752727587,1.77201892,6.765190672,4.703434106,-0.244204665,3.383545721,-1.290695981
4.86578369,8.175188429,5.438089891,5.206121317,0.393389207,0.862200975,-0.243796064,0.193177481,-21.10580143,-8.765420874,-14.49389015,-15.50749449,2.046914337,0.637414216,5.176726798,3.077431571,1.186550767,2.920444837,-1.68026475
5.457758178,7.69105556,4.762965158,4.562682757,-0.752008842,-0.05969561,-1.100114328,-1.108367477,-21.52190832,-9.313966491,-15.84116446,-11.69299807,1.471063165,0.176799392,3.815091938,2.242707056,3.152196287,3.385954129,-1.843227784
5.528364284,7.492434402,4.281456873,3.459800692,-2.879404905,-1.118299137,-1.685172358,-3.059287383,-22.55984064,-10.46556925,-15.44986993,-6.357759614,3.225995871,0.667601032,2.739051834,1.854967932,5.82705179,4.778381394,-0.783977959
5.449688248,7.935351701,4.319263188,2.33230059,-5.592417069,-2.310372167,-2.788436687,-5.719493736,-24.41400796,-11.91204448,-13.79811512,-4.083573447,5.772588484,1.68196145,1.737403292,1.565840999,9.117765018,6.631125856,1.803821526
5.527423758,8.904155852,4.782670789,1.42576452,-8.105036875,-3.534122521,-4.934348416,-8.752201831,-26.91654026,-13.43037099,-12.71576294,-7.507378617,6.627227942,2.252046746,0.495891506,1.250208784,12.50376345,8.253682198,5.245893701
5.85285448,9.87441536,5.267294931,0.672199175,-9.655984583,-4.64988851,-8.015103992,-11.56427104,-29.72993516,-15.08743785,-14.20738843,-15.53250855,3.962086639,1.489750319,-1.17103356,0.993159613,15.20382748,9.126765564,8.290606722
6.289497191,10.28445994,5.372414669,-0.187555047,-9.946234628,-5.554343929,-11.39187527,-13.69248226,-32.61726367,-17.10500509,-18.92371526,-24.27851287,-2.093052823,-0.768228838,-3.190168339,0.908633436,16.58439121,9.162571531,9.90181923
6.568071087,9.918753484,4.958090936,-1.372629463,-9.303833629,-6.221830156,-14.39317644,-15.1796801,-35.62521914,-19.56446965,-25.51624829,-29.91505462,-9.413635407,-3.780946865,-5.274440601,0.98644376,16.5028662,8.652026742,9.858351868
6.412762352,9.013812039,4.170692389,-2.901501671,-8.458407555,-6.687365559,-16.7910121,-16.60423165,-39.008344,-22.23223949,-31.45146965,-31.12410796,-15.18766511,-6.3464694,-7.065990285,1.105085859,15.31464532,7.975619212,8.753995301
5.639533044,8.034590806,3.273600972,-4.57856742,-8.071653783,-6.980898572,-18.83119191,-18.63421571,-42.8669579,-24.6271955,-34.68795299,-29.34644145,-17.66489788,-7.552589723,-8.234483936,1.176899634,13.54445552,7.333634434,7.464545817
4.215546379,7.329171946,2.46423669,-6.075952046,-8.328942948,-7.056329393,-20.76914128,-21.35848359,-46.7180962,-26.21925392,-34.91309345,-26.8280846,-17.11605323,-7.287627848,-8.46653989,1.269845357,11.49982015,6.704489147,6.530754323
2.290799786,6.93934132,1.826341097,-7.020863875,-8.843364583,-6.77090505,-22.31443092,-23.90047844,-49.37321376,-26.57126779,-33.39986827,-24.26878492,-15.35366203,-6.15796185,-7.425735313,1.580186987,9.146220997,6.01840374,5.908255592
0.192992421,6.684319914,1.411533755,-7.061875237,-8.908410649,-5.946245765,-22.52076269,-24.70333965,-49.37138655,-25.36617376,-31.68251044,-20.14387844,-14.22411535,-4.920107793,-4.821734649,2.274854936,6.332335192,5.343448184,5.192849603
-1.645871705,6.399603351,1.320569819,-5.958206907,-7.919220105,-4.489142313,-20.32807975,-22.42036814,-45.82996642,-22.43329282,-30.21007152,-12.32130006,-14.21477678,-3.893696655,-0.62756538,3.344284386,3.148447379,4.892204983,4.051276648
-2.838780165,6.106703225,1.672570221,-3.720295222,-5.706842074,-2.501073096,-15.41767254,-16.87202004,-39.19239294,-17.89760473,-28.11429302,-0.6206786,-14.18874625,-2.801722027,4.692747319,4.596524899,0.084602177,4.84947357,2.481394393
-3.208315147,5.986980596,2.481677908,-0.733257409,-2.620090463,-0.29824537,-8.728529156,-9.408017631,-31.3030426,-12.39325428,-24.25070722,11.91926066,-12.38686212,-1.12229516,10.16695348,5.79475677,-2.173885377,5.205394932,0.741593973
-2.85643882,6.224568071,3.573144116,2.27617267,0.644891235,1.688043669,-2.180391437,-2.365566978,-24.62904828,-7.095272977,-18.57419017,20.34895036,-7.89919335,1.363982791,14.61486238,6.812439455,-3.165823365,5.775467995,-0.898837387
-2.065428154,6.888346574,4.653781518,4.509778224,3.344248886,3.08529675,2.278642934,2.090461597,-21.03530518,-3.360568509,-12.62227777,20.93377098,-1.504313468,4.271712421,17.13495615,7.668978904,-2.955942787,6.401232533,-2.311902064
-1.074715925,7.955868364,5.515815318,5.507434292,4.967746476,3.731113271,3.678860156,3.044644754,-20.86627348,-2.064363695,-8.637530554,13.82609405,4.705909535,6.770970456,17.48020846,8.423314308,-2.079238149,7.136024654,-3.438471292
0.108638187,9.424068259,6.219809428,5.439644971,5.40199825,3.715759969,2.427868968,1.183471199,-22.91184746,-3.041938382,-8.013174156,3.239613374,8.589597056,8.062612204,16.08378315,9.039226381,-1.172244111,8.219869321,-4.117403385
1.706752617,11.36307019,7.094183902,5.043077347,4.936541286,3.296695918,-0.115160323,-1.739318642,-25.24385134,-5.088465431,-10.31830189,-5.106250295,9.176140311,7.809497127,13.74214037,9.369792685,-0.570410981,9.847793409,-4.046375085
3.950663343,13.83364627,8.520944958,5.180171892,4.117520765,2.742511412,-2.53146589,-3.935495166,-26.3389666,-6.627693577,-13.67909353,-7.500045316,7.03248878,6.247778787,11.19910772,9.303363098,-0.150744504,11.94791603,-2.963808869
6.795037234,16.7350869,10.64362668,6.283054839,3.492644891,2.19938974,-4.074724657,-4.473939515,-25.77267789,-6.662050814,-16.18212154,-4.26945187,3.646647288,3.973373012,8.906154885,8.955160297,0.513383842,14.19410011,-0.901666759
9.792065672,19.72757134,13.19814048,8.059332995,3.340129222,1.649198796,-4.825137269,-3.570516059,-24.14815176,-5.361360528,-17.16258393,0.9680676,0.395628614,1.619354439,7.046170711,8.71382732,1.848210991,16.25274396,1.737940631
12.24339905,22.30247935,15.57919542,9.678486029,3.51201434,0.968373313,-5.317101763,-2.241861448,-22.4876042,-3.871121339,-17.39526403,4.094845314,-2.13767386,-0.349153882,5.678311293,9.03614963,4.051018652,18.0083944,4.380790822
13.53842278,23.92901116,17.08828032,10.32107591,3.499162708,0.043291335,-6.032005399,-1.643907295,-21.616247,-3.47939575,-18.1469934,3.207495688,-4.115854591,-1.658321012,4.799445156,10.07608771,7.036921003,19.48985918,6.595158137
13.43992657,24.14064739,17.1972723,9.708201833,2.718684461,-1.12156374,-7.123652595,-2.493772809,-21.91437453,-4.744705919,-19.95903813,-0.589924335,-5.883510576,-2.166938894,4.270066781,11.39586043,10.49542913,20.49413299,8.249234439
12.12010278,22.51776496,15.6847871,8.243128279,0.882653118,-2.353621377,-8.450209618,-4.805011435,-23.40110713,-7.189239975,-22.16043791,-4.56834387,-7.444673226,-1.851728375,3.756296647,12.0087246,13.94409368,20.25709523,9.383937643
9.951844527,18.6830642,12.62488825,6.686565783,-1.770284423,-3.34484835,-9.724973636,-7.941363004,-25.84185117,-9.705841624,-23.41876265,-6.576182838,-8.396876783,-0.858673321,2.873784285,10.82213315,16.75887565,17.60682777,9.952169344
7.25493696,12.47243751,8.31608735,5.630575137,-4.537282388,-3.763458464,-10.59028741,-10.87749086,-28.67485312,-11.28998682,-22.75970995,-6.300800126,-8.297304121,0.466436771,1.522071846,7.288117758,18.26647135,11.70618657,9.718989749
4.216702054,4.283595451,3.242616047,5.167248667,-6.58728587,-3.411168901,-10.61694603,-12.56228924,-30.89371808,-11.52364143,-20.18038895,-4.820584346,-7.083796096,1.657060271,0.144738092,1.889998288,17.96513717,2.958761965,8.472441034
1.031623168,-4.646964574,-1.930134691,4.96932387,-7.374307461,-2.360644109,-9.390498246,-12.31115388,-31.22780333,-10.53224485,-16.44513901,-3.153764342,-5.176087274,2.302990444,-0.393341798,-3.872383294,15.79572277,-6.640860135,6.378930152
-1.913821938,-12.38438005,-6.411117983,4.661745136,-6.88325997,-0.991139563,-6.776084656,-10.12607314,-28.77391443,-8.623650417,-12.40592377,-1.239438254,-3.191201426,2.216102512,0.646667629,-8.08423357,12.25939139,-14.17342994,4.124649819
-4.048177124,-16.9824421,-9.464414639,4.143600688,-5.578378323,0.133451824,-3.212045252,-6.78734952,-23.77101676,-6.056911147,-8.537508684,1.76103101,-1.532876333,1.476596887,3.25273898,-9.343165315,8.226534968,-17.24102075,2.619615953
-4.888566276,-17.42442909,-10.67662021,3.595023323,-4.116718139,0.521782586,0.275597812,-3.586952808,-17.89426416,-3.174479086,-5.047210784,6.224922183,-0.19031198,0.347761003,6.472270167,-7.512117763,4.503101199,-15.31797476,2.415917811
-4.396356152,-14.2248607,-10.15237966,3.201861273,-3.020142281,0.029281031,2.514009178,-1.741115986,-13.63001461,-0.681269457,-2.280335048,11.14223934,1.12607345,-0.8558712,8.911897102,-3.832347949,1.438851443,-10.07333542,3.284421889
-3.103027333,-9.21172765,-8.470016651,2.891776603,-2.48554163,-1.014742718,2.891494429,-1.749378527,-12.92899191,0.38496684,-0.836282962,14.48162418,2.671528383,-1.85301328,9.651497223,-0.262832475,-1.129324229,-4.366983637,4.32613389
-1.83186572,-4.523139866,-6.365733129,2.368889511,-2.388204461,-1.935122985,1.846370348,-3.080175334,-15.95508523,-0.791004695,-1.13610212,14.66952687,4.456371614,-2.415019137,8.913511538,1.622814062,-3.548740255,-0.532763042,4.588965355
-1.156405747,-1.419137628,-4.311639127,1.458341835,-2.40894617,-2.057287167,0.709257589,-4.428505074,-20.82794969,-4.042024718,-2.816068092,11.97106126,6.289473149,-2.377812421,7.939356313,1.535649379,-5.898531771,0.916604693,3.743360529
-0.979126966,0.310501956,-2.26031808,0.462009733,-2.181987468,-1.088231072,0.900244876,-4.454768799,-24.65515236,-7.921360997,-4.624089785,8.550918457,7.986352187,-1.698372305,8.096514299,0.588650177,-7.791753599,1.304419889,2.298734016
-0.570973489,1.94488164,0.251558633,0.15973842,-1.414080196,0.696475042,2.976054821,-2.589970533,-25.25844414,-10.31350832,-5.122370899,7.035804467,9.517656945,-0.528586347,9.847767719,0.51535522,-8.614255121,2.564974452,1.194375706
0.909086803,4.733544729,3.67989118,1.349436407,0.014023893,2.584972049,6.188186067,0.585011264,-22.47520781,-9.710022018,-3.749613482,8.635216237,10.95417158,0.785023243,12.36507424,2.464802905,-8.020031868,5.692472007,1.092029888
3.759635832,8.892688026,7.998458364,4.209699983,1.955700609,3.812106697,8.892477167,3.634183697,-18.17409318,-6.293890907,-1.361254771,12.27546439,12.27326642,1.836043679,14.11102967,6.170868389,-6.27281228,9.986117398,1.924788502
7.416132095,13.40670877,12.50184675,7.968557261,3.964667063,3.966504525,9.561154623,5.067022209,-15.00018727,-1.983019983,0.300052384,15.42308951,13.23318474,2.373523254,13.97503928,10.08777027,-4.128773496,13.60587338,3.031142099
10.70882054,16.7441738,16.05160977,11.18635253,5.398158786,3.1806839,7.723809837,4.162484177,-14.72819029,0.71513863,-0.12271662,15.94859492,13.46674379,2.448855684,12.11262942,12.43923436,-2.322136755,14.98394925,3.719059162
12.53373702,17.92885719,17.6443898,12.52283723,5.67493967,2.002852352,4.218019392,1.328552453,-17.32681038,0.294907258,-2.581299467,13.58499663,12.74360629,2.367981297,9.849899369,12.47264344,-1.046281485,14.02372635,3.772379718
12.4801562,17.1730676,16.96143215,11.49039701,4.57917396,1.047629635,0.616910704,-2.190779512,-21.27815674,-2.830244798,-5.703779105,9.901073772,11.18125885,2.462659426,8.724257074,11.02245374,0.158697965,12.2034484,3.502116876
10.99973384,15.64317948,14.55732358,8.686917476,2.416584836,0.648552881,-1.743955346,-5.048341641,-24.78897578,-6.737775406,-7.936485523,6.915568101,9.204171775,2.84155278,9.385827205,9.944968894,2.017059441,11.52920468,3.361448893
9.037054675,14.5882543,11.56646524,5.367215801,-0.115777117,0.712479735,-2.489902972,-6.510306396,-26.95219472,-9.411191002,-8.811372782,5.532001178,7.252417252,3.3087297,11.17378046,10.79352983,4.926881287,13.1230562,3.512013936
7.411904109,14.50900038,9.104078933,2.675034342,-2.301336875,0.833959558,-2.261012918,-6.752780591,-28.06614594,-10.10268627,-9.278306745,5.034905714,5.460565892,3.512792771,12.64927923,13.67619379,8.61972775,16.46913528,3.732990543
6.381555545,14.95367642,7.719928063,1.069569434,-3.789182338,0.569906698,-2.159055076,-6.621792451,-29.02842014,-9.661924259,-10.81631141,3.953152843,3.57734611,3.211152284,12.64175007,17.13325156,12.31200792,19.8228826,3.718816084
5.638332714,15.00871856,7.214773113,0.294191682,-4.731125424,-0.299352551,-3.021353968,-7.059678256,-30.41494567,-9.667469946,-14.06978955,1.471399881,1.222400953,2.446257615,11.01384573,19.13835037,15.19676295,21.42909468,3.443003876
4.669880573,14.03527362,6.893332451,-0.186213993,-5.570487006,-1.658108519,-4.981173815,-8.556833484,-32.00904324,-11.10394021,-18.16615077,-1.817913972,-1.693085812,1.504416965,8.621967135,18.49799594,16.87462384,20.6400789,3.213296686
3.179373688,12.08269829,6.063748123,-0.675488559,-6.630072198,-3.12358907,-7.499917003,-10.91322081,-33.0893513,-13.6163314,-21.30174706,-4.404424253,-4.708090505,0.700007459,6.592873656,15.62742341,17.41232046,18.1657279,3.351211303
1.279700724,9.736970352,4.46877358,-1.050488367,-7.796479772,-4.231354858,-9.730676949,-13.37509539,-33.13062582,-15.849928,-22.11260267,-5.107491581,-6.949658231,0.157161492,5.527994469,12.1522814,17.05399323,15.37684459,3.806730422
-0.613559094,7.629836226,2.411269478,-0.966797275,-8.533299327,-4.637386833,-10.92809894,-15.00791556,-32.25944021,-16.50872687,-20.6871049,-3.999501968,-7.620877204,-0.251873602,5.221001389,9.671822792,15.89905521,13.27543779,4.107570937
-2.048120771,6.055878146,0.544916815,-0.229620459,-8.221682861,-4.254210759,-10.7024979,-15.09166611,-31.07178338,-15.25253947,-18.39183516,-2.264613862,-6.527941579,-0.785316973,5.005398371,8.639639394,13.85735983,11.92496586,3.745543372
-2.75177437,4.971724987,-0.503698737,0.997870075,-6.595316026,-3.279556848,-9.091855295,-13.38407993,-30.01134555,-12.78179149,-16.69638222,-1.19195275,-4.282101084,-1.636986193,4.355149106,8.194462729,10.9125947,10.70152242,2.682189791
-2.689325794,4.276808348,-0.447844078,2.293816974,-3.974222179,-2.114992057,-6.526062638,-10.20543841,-28.91103393,-10.18018469,-16.02472461,-1.208772473,-2.014878936,-2.810207401,3.235896904,7.011102868,7.421915354,9.056169139,1.50234478
-1.993434201,4.041442353,0.568705258,3.258947055,-1.144229025,-1.204128956,-3.73088374,-6.364944545,-27.16642478,-8.163095981,-15.60830944,-1.745066308,-0.764304191,-4.123089225,1.997437238,4.448029646,4.124165411,7.103074958,1.020421908
-0.868804778,4.445933772,2.111911701,3.731593924,1.036060996,-0.849266657,-1.548795371,-2.950958374,-24.44445976,-6.846351825,-14.42215729,-1.935307562,-0.906609763,-5.300691906,1.010097973,1.0697451,1.774051401,5.543787134,1.62575685
0.471090318,5.507808534,3.716104101,3.794595444,2.057376373,-1.084190957,-0.655925375,-0.998271945,-21.31124598,-6.093421011,-12.33013971,-1.431858154,-1.978422726,-6.068987673,0.415949948,-1.838023883,0.656785837,5.019531297,2.915245623
1.847274659,6.900156373,5.110962403,3.638833182,1.974419942,-1.669476813,-1.252587601,-1.088369096,-19.14713958,-5.956026996,-10.38088239,-0.574850184,-2.986696855,-6.210049767,0.180373987,-3.315855485,0.37537664,5.467651563,3.953761833
3.167016881,8.090500356,6.308194464,3.452010723,1.320290941,-2.223960022,-2.904936011,-3.030815895,-19.26001542,-6.687763842,-9.94561321,0.168488773,-3.007428737,-5.603546259,0.304142436,-3.457998019,0.114693184,6.055394354,3.98295755
4.463103369,8.723721966,7.518720343,3.417721079,0.796429417,-2.431366997,-4.694987189,-5.830562787,-21.79624332,-8.294124029,-11.42668441,0.853518378,-1.717970072,-4.289716458,0.909738895,-3.23218796,-0.781039132,5.785035076,3.008637678
5.856570225,8.917362485,8.94998554,3.745412153,0.908701133,-2.210181014,-5.667535664,-8.067427983,-25.31936454,-10.11345401,-13.68832246,2.055288262,0.426216584,-2.532475204,2.075240152,-3.573386418,-2.330878584,4.303281754,1.781044129
7.414263876,9.176398967,10.58913049,4.592383614,1.716700554,-1.748038869,-5.351693333,-8.58935925,-27.51535692,-10.98023492,-14.78831755,4.11156121,2.435837562,-0.803686576,3.583538713,-4.531399187,-3.88487558,2.26145946,1.182687734
8.975148653,9.950482435,12.09572201,5.861611843,2.797071199,-1.379404115,-4.044508734,-7.174741137,-26.65831269,-10.01493918,-13.49122577,6.310887483,3.288375815,0.372540374,4.885861012,-5.190521106,-4.550717134,0.913267629,1.533026309
10.09299557,11.18096075,12.89031915,7.047793349,3.435638068,-1.380298361,-2.661255864,-4.743547213,-22.84710879,-7.45297156,-10.34573024,6.924873841,2.413832401,0.675675758,5.405266291,-4.423377643,-3.762442701,1.232351458,2.383321747
10.19608383,12.2285897,12.42806058,7.353077219,2.976265113,-1.803836935,-2.217405546,-2.904524337,-18.09987652,-4.757268175,-7.409313205,4.330162308,-0.054965088,0.198646856,4.97842561,-1.848198271,-1.596276344,3.208039506,2.950630743
8.906066672,12.28004548,10.52507309,6.110617711,1.177152518,-2.451950075,-3.238652186,-3.030664824,-15.15536135,-3.763383608,-6.76976797,-1.527405932,-3.343245651,-0.546390436,4.058270417,1.795838013,1.344223967,5.838185085,2.792210615
6.308991788,10.93643569,7.536060232,3.26833313,-1.609697908,-2.99237557,-5.442669105,-5.398982359,-15.74331734,-5.400353184,-8.978172695,-8.539958947,-6.340639281,-0.871606626,3.456313807,5.143105457,4.327494027,7.800143355,2.125527482
2.96796074,8.521114428,4.235162706,-0.44524844,-4.565090158,-3.14408174,-7.871492406,-8.951760716,-19.48272939,-8.947607363,-12.59130357,-13.3959751,-8.012604213,-0.285585583,3.776006037,7.13675769,6.856020212,8.275665963,1.525708092
-0.362663334,5.855245045,1.427783908,-3.870512569,-6.808570103,-2.822383228,-9.388626712,-11.87507067,-24.14720291,-12.44264996,-15.16563084,-13.5942943,-7.771699511,1.2242154,4.961051012,7.642072772,8.758492016,7.327676007,1.295926884
-3.1370139,3.673071751,-0.483067678,-6.093741117,-7.871813043,-2.17028101,-9.256948236,-12.66248164,-27.0976433,-13.98809024,-14.94386287,-9.128423181,-5.69480501,3.170515764,6.314580786,7.288334394,10.03080874,5.618838537,1.109111496
-5.248197486,2.139786955,-1.683357206,-6.979003658,-7.944300231,-1.474049862,-7.490795482,-10.99743241,-26.89754195,-13.00658337,-11.99126653,-2.594616537,-2.51332028,4.819299583,6.983996979,6.759533167,10.63918265,3.788185535,0.286168246
-6.924638566,0.852838279,-2.733036325,-7.152678664,-7.707614954,-1.021084044,-4.819358079,-7.893148371,-24.04798716,-10.52581463,-8.011619993,2.417975389,0.643758302,5.567191104,6.54868686,6.199255611,10.48695391,2.032555603,-1.499614909
-8.381354142,-0.683384395,-4.070471911,-7.438642414,-7.839641907,-0.975721014,-2.30787195,-5.015891428,-20.43604402,-8.319809831,-5.080345047,3.559988274,2.694498792,5.232570516,5.284497991,5.244815188,9.563582903,0.204266147,-3.717547356
-9.507047526,-2.502336147,-5.577790875,-8.167101263,-8.512592416,-1.325408385,-0.842285471,-3.651491791,-17.98181976,-7.592577254,-4.276526532,1.055049928,3.080066938,4.116374002,3.948958657,3.612049771,8.112432204,-1.741653899,-5.176584034
-9.841785909,-3.997198726,-6.535732986,-8.884975309,-9.238891251,-1.908404037,-0.726753267,-3.985841104,-17.45623191,-8.190040733,-5.151474002,-2.702777734,2.051812513,2.823860813,3.297928184,1.647015916,6.62987005,-3.419598132,-4.847767794
-8.871590283,-4.274110372,-6.033388282,-8.68537951,-9.188144252,-2.499326334,-1.573950829,-5.122183089,-18.21614953,-8.859746053,-6.265522404,-4.878980034,0.584656044,1.95551436,3.706718148,0.288098053,5.653783,-4.145297962,-2.682881871
-6.414819102,-2.767315453,-3.564171682,-6.891420005,-7.760223607,-2.911558827,-2.531256473,-5.74734233,-18.8928594,-8.255956622,-6.262272336,-3.989711005,-0.107114145,1.819993019,5.118603591,0.413746907,5.483005202,-3.432924074,0.247321798
-2.800929046,0.356451893,0.612664469,-3.563007619,-5.007073347,-3.075022732,-2.73773203,-4.956767074,-18.42605733,-5.876441313,-4.688987146,-0.601553212,0.751373839,2.29508656,7.2436892,2.116288042,6.034183301,-1.413109183,2.452435644
1.29608125,4.303063399,5.60642894,0.543513908,-1.604934126,-3.059767704,-1.799252269,-2.719097531,-16.70292255,-2.283277927,-2.106307021,3.320605118,2.986096833,2.894077248,9.754449915,4.540555491,6.938915959,1.220711093,3.046741814
5.239875345,8.162177369,10.42427788,4.485392358,1.585675968,-3.036853204,-0.045480831,0.223560157,-14.46147399,1.404711486,0.404331474,5.754301835,5.464626391,3.012111669,12.30779668,6.463715836,7.801714876,3.71638361,2.317946884
8.740290029,11.41748932,14.50310313,7.675757404,4.030384725,-3.193483538,1.582882324,2.835159315,-12.6813195,4.220271139,1.885798938,5.692435549,6.663733559,2.248164924,14.45645468,7.164046109,8.426677403,5.785390111,1.417609084
11.86998525,14.08006344,17.86071517,10.04058981,5.725239591,-3.640114577,1.992580132,4.282141271,-11.98027985,5.705509271,1.910649327,3.410471021,5.540246699,0.647279622,15.65342784,6.873094908,8.861209737,7.676934617,1.442947011
14.80852769,16.3936952,20.78912234,11.73680801,6.97821947,-4.352181722,0.525754944,4.192531722,-12.39974094,5.798286563,0.637549444,0.049450963,2.20098437,-1.278959602,15.46135974,6.448838744,9.255979788,9.727826143,2.64189668
17.54172715,18.40586916,23.37489412,12.75993246,7.992716814,-5.173372618,-2.639243178,2.663176978,-13.58595988,4.566164113,-1.369964041,-3.01331497,-2.065725483,-2.796860455,13.84418583,6.55810737,9.676560375,11.7952412,4.337428963
19.7597574,19.78457619,25.25976671,12.83811004,8.621728732,-5.878112393,-6.519055601,0.148226291,-15.09768633,2.156394867,-3.420476211,-4.657006915,-5.471257957,-3.350170455,11.27667061,7.063778154,10.02162658,13.12189898,5.563038766
21.01954957,20.0329679,25.84508656,11.71410338,8.494223557,-6.263862585,-9.803508737,-2.672377599,-16.58427924,-1.008702538,-4.989461593,-4.337889086,-6.742808593,-2.887403511,8.514929481,7.133643949,10.10256298,12.8331669,5.838327309
21.02080572,18.91067675,24.76747143,9.53058674,7.382969842,-6.232735959,-11.53052628,-5.061430777,-17.79636909,-4.114669834,-5.96332228,-2.323109186,-5.85303422,-1.902079068,6.152906291,5.978002292,9.80882827,10.70235489,5.449102661
19.76826378,16.69720318,22.23966973,6.909784381,5.470378016,-5.829885394,-11.57373966,-6.477998225,-18.56886121,-6.23063588,-6.707268756,0.235652003,-3.99334613,-1.134014587,4.298036978,3.596789161,9.224521141,7.530679673,5.057883381
17.50778981,14.06441889,18.95440117,4.57707567,3.257917443,-5.225725993,-10.656597,-6.856063921,-18.89224896,-6.907134135,-7.839474827,1.629176349,-2.795675132,-1.10216958,2.633789932,0.910981542,8.610052986,4.749215989,5.046848314
14.52085686,11.64507946,15.60725772,2.798382863,1.180060463,-4.650013562,-9.889172493,-6.718751666,-19.02044486,-6.63086419,-9.763799065,0.417698324,-3.299919912,-1.767822692,0.830951994,-0.838535636,8.268954663,3.475149908,5.195403037
10.96995935,9.628385007,12.41370119,1.109947962,-0.74544617,-4.301898938,-10.11428026,-6.957595567,-19.4494776,-6.671840619,-12.25055647,-3.582865299,-5.334961759,-2.55685571,-1.026803222,-0.949642715,8.397137002,3.731288191,4.964644071
6.921650553,7.689918337,9.011589277,-1.381626975,-2.909822135,-4.269300331,-11.45643336,-8.317363322,-20.6757449,-8.307899429,-14.42326342,-8.847325453,-7.700159436,-2.735069396,-2.36862708,0.289759083,9.007626149,4.453118275,4.104434577
2.503202367,5.301512269,4.83925854,-5.306840326,-5.718809033,-4.491095665,-13.31968358,-10.87863116,-22.84485162,-11.94173887,-15.26518886,-12.75112774,-8.988746174,-1.890165362,-2.505208963,1.875172573,9.954290345,4.305512366,3.005792108
-1.970855633,2.182613788,-0.295503881,-10.45695705,-9.11484259,-4.782808363,-14.78312791,-13.89720172,-25.53862718,-16.7649032,-14.33991891,-13.07728616,-8.467245969,-0.200787924,-1.170337478,2.8247624,11.00668069,2.691183255,2.445122936
-6.031829755,-1.432155766,-5.887240655,-15.7586304,-12.41163821,-4.92005877,-15.10383779,-16.14815923,-27.87947744,-21.22304028,-12.17453926,-9.504927876,-6.419491752,1.6781926,1.18902611,2.796957218,11.90982093,0.179138176,2.909878049
-9.229038199,-4.874916583,-10.88590583,-19.81483834,-14.60537326,-4.74345118,-14.01596193,-16.57394781,-28.90689134,-23.91979167,-9.944855824,-3.999768131,-3.777128226,3.021441477,3.616081308,2.159081702,12.40260843,-1.956286925,4.083551802
-11.29517278,-7.3810775,-14.20750828,-21.60975049,-14.95522723,-4.231951961,-11.70623434,-14.82130685,-27.99220302,-24.28281287,-8.635966233,0.311113831,-1.378388966,3.448883146,5.207943634,1.55395431,12.2236508,-2.693427892,4.960625967
-12.17222905,-8.431878431,-15.23587124,-20.89557228,-13.4147311,-3.504249341,-8.588126765,-11.34388564,-25.05960136,-22.56553771,-8.308447126,1.125772126,0.5645231,3.086431419,5.636438589,1.385789398,11.15258008,-1.956311043,4.543458126
-11.90154149,-7.90580083,-14.00535251,-18.07955749,-10.61167129,-2.746748612,-5.101439928,-7.069091811,-20.5519748,-19.34124814,-8.072493788,-1.523151886,2.419558699,2.401822757,5.264179742,1.631327549,9.100736229,-0.53383561,2.580760687
-10.51043055,-6.021806202,-11.03165245,-13.83117183,-7.418380948,-2.110122209,-1.666849223,-2.9166598,-15.25102218,-15.04255213,-6.832588167,-5.310277885,4.619107251,1.86642064,4.80369997,2.040810762,6.206743379,0.636084786,-0.240655535
-8.02547149,-3.198470252,-7.006337266,-8.787454676,-4.447596753,-1.634873418,1.267219589,0.509622596,-10.08546309,-9.965990246,-4.231080932,-7.217003897,7.14516548,1.682728465,4.795656607,2.45557229,2.861174553,1.183401728,-2.798880739
-4.606564872,0.051383231,-2.593342148,-3.539827134,-1.827056517,-1.246806412,3.251587428,2.950057122,-5.954887773,-4.640085057,-1.024277646,-5.591718846,9.449973317,1.730270445,5.282068379,2.922456998,-0.38756349,1.447317674,-4.321199101
-0.653691635,3.182082071,1.616726349,1.248608983,0.643190198,-0.819026606,4.019113426,4.375406958,-3.512262157,-0.046355907,1.437756946,-1.249756983,10.8576654,1.709652386,5.868866815,3.532178508,-3.020035622,1.997608358,-4.821598808
3.268285789,5.708600358,5.123816992,4.888340132,3.14349601,-0.258741537,3.708716212,4.923943154,-2.906931903,2.710512039,2.223955374,3.115027503,11.08197409,1.345075719,6.073423746,4.191392973,-4.730246204,3.022572742,-4.87074211
6.688340459,7.371645328,7.638318323,6.974037905,5.596958118,0.430887921,2.897421825,4.922747704,-3.641390177,3.138815105,1.503017996,4.743749463,10.40579782,0.513491173,5.671188297,4.591988128,-5.50138998,4.146991175,-4.943754348
9.487315271,8.29194821,9.259482421,7.724859426,7.698222445,1.140930713,2.303990341,4.846944718,-4.75100617,1.871112403,0.325754712,2.569429377,9.370471278,-0.734622108,4.807152522,4.433314517,-5.527700839,4.821788652,-4.938032118
11.92553592,8.956862721,10.50718326,7.974861153,9.12362987,1.693865083,2.291889973,5.08264412,-5.343141828,0.381441,-0.316756482,-2.243654926,8.25521802,-2.2130515,3.846882601,3.696285096,-5.034449554,4.898079213,-4.290313448
14.36873071,9.957391819,12.04647515,8.664792105,9.710486039,1.904218334,2.518789572,5.579548197,-5.218870573,-0.035316735,-0.373582717,-7.223571684,6.818368206,-3.641095619,3.126366221,2.708914544,-4.11604148,4.834349925,-2.589961818
16.88938376,11.58457552,14.1947624,10.12585805,9.470272418,1.640419911,2.047415787,5.693087867,-5.119647018,0.714041882,-0.803971481,-10.21806449,4.552625699,-4.687399921,2.788701831,1.931291815,-2.701390894,5.324168853,-0.136776959
19.05221904,13.54655775,16.54652403,11.7072405,8.48196103,0.874673713,-0.069962783,4.474388912,-6.31430758,1.354151908,-2.755499425,-10.5858031,1.257603229,-5.053242367,2.781788515,1.64072641,-0.669402881,6.661599744,2.087876935
20.08152098,15.03556226,18.04928874,12.11337119,6.815770165,-0.289846599,-4.08520173,1.336377598,-9.70748212,0.17691203,-6.517622296,-9.255794987,-2.564306226,-4.602104925,2.955918569,1.778386398,1.967867809,8.406124532,3.084373401
19.32494024,15.1522669,17.56968658,10.28822835,4.574218775,-1.629449174,-9.218028737,-3.342303978,-15.06415489,-3.56195851,-11.12180649,-7.818638864,-5.866593659,-3.471014781,3.155194117,2.060485795,4.948089901,9.652210267,2.630215554
16.69313884,13.43857062,14.6112942,6.228209604,1.984848693,-2.860083014,-13.96421561,-8.178955535,-20.9439612,-8.864170047,-14.94139575,-7.429673343,-7.703839716,-2.065400639,3.253731912,2.219048729,7.800550174,9.683278985,1.549457803
12.75936212,10.17608496,9.693331558,1.110594248,-0.598568132,-3.737822189,-16.88502135,-11.46125825,-25.46321062,-13.4915473,-16.82841814,-8.27675427,-7.883781735,-0.895891107,3.167128676,2.145934793,10.03281056,8.464082303,1.181405858
8.451183502,6.257154047,4.114416779,-3.383088232,-2.845545107,-4.158343533,-17.37374429,-12.14270375,-27.38725226,-15.43727148,-16.88336108,-9.813338935,-7.112159231,-0.331499888,2.88710938,1.84511764,11.34718573,6.582917528,2.401302892
4.564657223,2.721613966,-0.742733131,-6.066552826,-4.640555535,-4.197505057,-15.905284,-10.47312389,-26.78460372,-14.28215914,-16.24911332,-11.36701019,-6.495043899,-0.423474774,2.532398695,1.308533799,11.74812284,4.743877684,4.91805682
1.444482352,0.26449138,-4.092622829,-6.853583021,-6.127271894,-4.056348183,-13.63032236,-7.794649124,-24.78453249,-11.41420123,-16.10538768,-12.5506618,-6.753649005,-0.920498711,2.348652978,0.501590576,11.47191969,3.284657716,7.389105528
-0.980654531,-0.992574696,-5.980490591,-6.569861479,-7.520237746,-3.928587998,-11.61516255,-5.62487969,-22.64814464,-8.951638715,-16.67183926,-13.20431527,-7.719184038,-1.462982551,2.599935917,-0.49915717,10.78736583,2.124976918,8.287645106
-2.905575394,-1.383696507,-6.985574251,-6.186628039,-8.812181169,-3.863169331,-10.23602373,-4.668916337,-20.86897833,-8.19720906,-17.00202658,-13.07189966,-8.452021413,-1.813223241,3.382303214,-1.382585132,9.800589365,1.115127844,6.899698568
-4.378810014,-1.386971912,-7.687245172,-6.104775353,-9.634025617,-3.708417028,-9.083216288,-4.446149978,-18.96431155,-8.78753614,-15.70783561,-11.65605746,-7.86345051,-1.956002003,4.485248092,-1.703651431,8.393691015,0.370078308,3.744265368
-5.271004958,-1.35503256,-8.298131608,-6.013388429,-9.432897176,-3.182219592,-7.358409698,-3.753786443,-16.05508339,-9.133629105,-12.02973008,-8.509244355,-5.381628907,-2.011809785,5.436791351,-1.216877227,6.338966292,0.207856172,0.152621615
-5.458282879,-1.421675355,-8.660689707,-5.336934736,-7.875657491,-2.038083112,-4.44256885,-1.582413004,-11.72092668,-7.742340201,-6.436354878,-3.783199716,-1.2365262,-2.05630947,5.760599984,-0.178451982,3.517340819,0.733064246,-2.638864251
-5.001468916,-1.546030964,-8.48624352,-3.810216624,-5.174151192,-0.236974462,-0.273011975,2.185779192,-6.444386424,-4.363873837,-0.347014598,1.452172934,3.731691593,-2.01116025,5.312029344,0.712417497,0.102604,1.511675842,-4.206171464
-4.121110266,-1.571625585,-7.564905554,-1.670561635,-2.054884106,1.972457177,4.629634064,6.737229202,-1.338518163,-0.114097047,4.745839415,5.518111804,8.506531879,-1.704457103,4.463664899,0.80170057,-3.409267539,1.761391867,-4.987591824
-2.978939987,-1.239310612,-5.793009064,0.651788022,0.640997117,4.113938632,9.396798589,10.86559553,2.556646576,3.429559503,8.072626562,7.009205104,12.25729756,-1.050110294,3.968012102,0.0679278,-6.358002036,1.010992609,-5.723105844
-1.482501687,-0.213366127,-3.102847867,2.992762687,2.446983906,5.658245475,13.11574535,13.62204716,4.816013564,5.366244113,9.774516147,5.712000823,14.48777119,-0.189205377,4.521508133,-0.700915104,-8.189769918,-0.322381075,-6.782554791
0.663975808,1.783150957,0.510770071,5.57899509,3.486517752,6.228969767,15.0707707,14.63429392,5.622669127,5.936127775,10.48035033,2.892816117,15.04239686,0.538167187,6.271057945,-0.396235105,-8.699357637,-1.034495782,-7.904910494
3.65086964,4.731691348,4.802274936,8.656088142,4.256148594,5.742489555,14.90376907,14.00118927,5.328434293,6.015241794,10.70621123,0.646268144,14.09068752,0.785645093,8.589866154,1.537391972,-8.109335571,0.014521308,-8.493877829
7.233845481,8.141894648,9.097279312,11.94712127,5.151481592,4.41870273,12.711689,12.00991358,4.045986732,6.150467107,10.53790903,0.626111024,12.09438064,0.418123823,10.32174232,4.510797853,-6.930888814,2.910182414,-8.165031456
10.68196859,11.13876217,12.38847139,14.48152897,6.105646525,2.660799558,9.047098505,8.97550476,1.643530343,5.985813216,9.729454903,2.946279946,9.658146633,-0.408360188,10.40795701,7.024307634,-5.666860088,6.401097363,-7.073624687
13.10271755,12.86334016,13.78578653,15.06368422,6.612690795,0.864508453,4.752893954,5.278322038,-1.903720617,4.559433865,8.002829928,5.994971152,7.23167343,-1.360398752,8.541887993,7.670601163,-4.51410351,8.684891619,-5.774904429
13.9382634,12.98126331,13.07251508,13.10420798,6.102685018,-0.747314714,0.634548179,1.429777396,-6.193901905,1.204073178,5.254734801,7.34421346,4.825969333,-2.143590786,5.431703003,6.217813431,-3.243827024,8.759300383,-4.769484016
13.26979624,11.94364556,10.93821418,9.174753557,4.369754618,-2.178985066,-2.88061239,-2.026037864,-10.45923174,-3.715837874,1.567629281,5.222732218,2.012803801,-2.66122213,2.461943851,3.936965426,-1.358312273,7.296803891,-4.130050729
11.697309,10.75550435,8.625420296,4.794111647,1.734696957,-3.576406856,-5.870537978,-4.762133449,-13.98526407,-8.856232872,-2.85435006,-0.363645007,-1.678277626,-3.013622081,0.91981191,2.839303029,1.533034246,6.277255794,-3.509641368
9.884773361,10.33553034,7.152341602,1.52175879,-1.150931247,-5.052952176,-8.710360759,-6.847435114,-16.52009982,-12.71698682,-7.674222974,-7.562880262,-6.190784197,-3.367088581,1.250788305,4.291971899,5.324605761,7.542627758,-2.500166832
8.116893178,10.8674716,6.631463241,-0.016669559,-3.678377822,-6.536744616,-11.64863161,-8.644079005,-18.30518041,-14.60507832,-12.34601115,-13.68370777,-10.65582737,-3.813162897,2.816947908,7.976846444,9.263590374,11.30651364,-1.028531338
6.196443755,11.59859762,6.190278459,-0.460333924,-5.548285571,-7.744272019,-14.4743679,-10.45264223,-19.70321071,-15.00393616,-16.13046614,-16.63180596,-13.71125479,-4.32253987,4.32007764,11.95262154,12.17738763,15.75520877,0.530516501
3.736317864,11.2653866,4.592305224,-1.147556345,-6.774191252,-8.309160149,-16.53906518,-12.18090799,-20.76544198,-15.08573473,-18.31134067,-15.90750733,-14.29097909,-4.799912301,4.616372831,13.81007419,12.99889246,18.1020661,1.596189433
0.59244098,8.899870565,1.148240936,-3.06134158,-7.495149638,-7.990511197,-17.133933,-13.32355434,-21.13113178,-15.75775,-18.51304477,-12.64637745,-12.33036937,-5.160512481,3.389479725,12.14294041,11.30921713,16.3843215,1.764951706
-2.910987007,4.495804863,-3.715187942,-6.053874537,-7.798680376,-6.823964723,-15.94219642,-13.28945985,-20.34235089,-16.96514301,-16.87196814,-8.819873018,-8.82943821,-5.350498492,1.25401669,7.355617092,7.577026982,10.74396722,1.034334763
-6.127973995,-0.905092258,-8.624080451,-8.906813745,-7.692702257,-5.110282387,-13.22542624,-11.81765286,-18.27601213,-17.74919233,-13.90176381,-6.179538433,-5.184064018,-5.310837175,-0.735983018,1.323204221,2.938564703,3.322847785,-0.273785936
-8.471702763,-5.76233675,-12.03985623,-10.168032,-7.194233113,-3.245775569,-9.620278138,-9.148210592,-15.29404132,-16.98197672,-10.1596427,-5.541531566,-2.279786965,-4.955135621,-1.789517867,-3.779976393,-1.360686844,-3.089483515,-1.780064037
-9.723020979,-8.859749457,-13.11613556,-9.14927062,-6.39281873,-1.509856518,-5.737206954,-5.829487222,-11.98120992,-14.21459043,-6.010875508,-6.650508953,-0.049118702,-4.220886844,-1.790524611,-6.651728187,-4.533139966,-6.665005997,-3.266634197
-10.04764518,-9.879997532,-12.07497809,-6.377408637,-5.395039954,0.045985216,-1.896092417,-2.354337694,-8.723800864,-10.03094541,-1.695243514,-8.471477687,2.180863672,-3.16705207,-1.173437237,-7.310242256,-6.498678454,-7.334113346,-4.695397896
-9.756347821,-9.402287114,-9.915798337,-3.210159927,-4.204043092,1.540470146,1.816173953,1.053774982,-5.521747179,-5.690405358,2.415676641,-9.625709539,4.886386974,-2.014930652,-0.438945092,-6.68306274,-7.705394531,-6.383895786,-6.07083295
-9.038904422,-8.390055994,-7.728360391,-0.927072556,-2.681980639,3.093493358,5.285139389,4.347606709,-2.194697272,-2.354369612,5.716422018,-8.820995434,7.812839232,-1.050965987,0.258058519,-5.787848889,-8.687812802,-5.336997541,-7.316962443
-7.886198431,-7.549724918,-6.097835351,0.049905271,-0.683354488,4.67881533,8.203367731,7.394384958,1.237382941,-0.453347244,7.658044735,-5.290030955,10.18914729,-0.430099272,1.122966401,-5.127183615,-9.676532146,-4.984565589,-8.287806099
-6.221879236,-6.973012126,-4.946180532,0.289327865,1.718554254,6.100986915,10.18614119,9.833723661,4.381652462,0.3960044,8.264927468,0.778721443,11.48723159,-0.036536372,2.379517631,-4.623623634,-10.49640241,-5.154602397,-8.872922568
-4.079552155,-6.236255556,-3.806406188,0.803406973,4.107659915,7.092628773,11.05573347,11.211475,6.67905445,0.927731662,8.376326844,8.026496533,11.99246612,0.444616347,3.923261814,-3.961437131,-10.76077903,-5.154045478,-9.05767928
-1.645893379,-4.815003014,-2.25273875,2.252661608,5.848896302,7.438097659,10.98460737,11.26495366,7.779410366,1.590967745,9.209609972,14.23036918,12.57121322,1.244752295,5.312092497,-2.951818869,-10.16566841,-4.378112626,-8.85307153
0.85690893,-2.499515713,-0.184801271,4.460850262,6.414524403,7.030198164,10.29854908,10.08003374,7.699104625,2.195775697,11.38498751,17.20866663,13.73674814,2.214256728,6.116408909,-1.6418761,-8.655383736,-2.628235135,-8.165795881
3.309083798,0.444912538,2.153657298,6.536584799,5.692022777,5.849385398,9.079362214,7.965542813,6.594731715,2.061541166,14.11811584,15.93945705,14.82278819,2.775682543,6.306290639,-0.181863275,-6.373995592,-0.062327471,-6.774916955
5.691449925,3.421694611,4.335546276,7.464617256,4.044742103,3.936271273,6.959349103,5.176773647,4.401199234,0.53073162,15.34793459,11.18326418,14.12070448,2.245370015,6.294469366,1.334576874,-3.502408181,2.984421745,-4.505632172
7.929499232,5.808271602,5.93164253,6.7347367,2.072518671,1.426387333,3.397425174,1.784195692,0.779463111,-2.523092848,12.95562584,5.083230066,10.09793963,0.357652981,6.549001995,2.885429465,-0.156348764,6.08195551,-1.495008483
9.740454089,7.222542888,6.62230672,4.599176998,0.242675552,-1.370682856,-1.691096308,-2.151663926,-4.439005077,-6.532423899,6.352071447,-0.116858914,2.854969213,-2.380972946,7.090020238,4.41373988,3.563141211,8.70715712,1.691788751
10.66850694,7.625216905,6.25226727,1.837185065,-1.344777544,-3.952187882,-7.463578268,-6.261649275,-10.64125427,-10.50652061,-2.728895402,-3.411028606,-5.384682325,-4.825285677,7.33261818,5.755181534,7.430519607,10.34431497,4.265880902
10.33822349,7.253992936,4.871057682,-0.761962981,-2.902223624,-5.757085727,-12.33169098,-9.768101799,-16.27716727,-13.53741364,-10.96008672,-5.46987233,-11.33746742,-5.813053157,6.478242766,6.70162316,11.01760383,10.75353701,5.661124603
8.748474267,6.464039334,2.753072121,-2.829308236,-4.674720803,-6.427853755,-14.81454214,-11.81886178,-19.50933134,-15.20915932,-15.33110002,-7.8341086,-12.6767886,-4.90722,4.188711671,7.136047434,13.77155294,10.21271085,5.912763097
6.358426196,5.559434552,0.344912816,-4.490154188,-6.659347272,-6.035116427,-14.50386497,-12.06871253,-19.33971918,-15.66967384,-14.9739527,-11.45421132,-9.581413346,-2.749054465,0.998331785,7.079595053,15.20518291,9.429817004,5.654057609
3.860950813,4.674317647,-1.88372673,-6.073250538,-8.528723879,-5.076808106,-12.39046917,-11.02030054,-16.36517796,-15.36119217,-11.60407768,-15.69970751,-4.630412359,-0.732608089,-1.910553839,6.575935559,15.0609067,9.046175341,5.675660766
1.788295771,3.739193386,-3.621072605,-7.687941844,-9.796225275,-4.200035189,-10.21097255,-9.743416917,-12.45994762,-14.62113554,-8.220995832,-18.63188809,-1.03876389,-0.164352567,-3.440442093,5.523201989,13.3416655,9.049238304,6.330776702
0.241758527,2.551549204,-4.802941952,-8.973331492,-10.08384903,-3.801900189,-9.210695872,-9.074394984,-9.469850851,-13.42329451,-6.96663473,-18.36192187,-0.467167446,-1.443789891,-3.266661929,3.659022176,10.22606326,8.610119909,7.219033548
-1.048856188,0.938244236,-5.532736171,-9.19615755,-9.300409875,-3.780480877,-9.21012176,-8.874657355,-7.83322089,-11.40985736,-7.661877215,-14.45950496,-1.977687567,-3.814036004,-1.945120642,0.792557255,5.981911241,6.610679422,7.40798298
-2.386972212,-1.057967981,-5.882055592,-7.643125891,-7.630792008,-3.622539268,-8.69361417,-7.97566086,-6.213947222,-8.166228141,-8.050214975,-8.326386367,-2.866280827,-5.857558266,-0.368445674,-2.862376138,0.970928811,2.571611794,6.067866219
-3.764365412,-3.08087221,-5.730110323,-4.068063875,-5.38579971,-2.778780797,-5.903978335,-4.961887497,-2.528855971,-3.549968224,-5.531174697,-2.255944035,-0.720162462,-6.40546915,0.968232017,-6.55041732,-4.281433532,-2.712423591,3.08668138
-4.787419455,-4.54811502,-4.787898056,1.076225374,-2.847294353,-1.065881807,-0.175106686,0.711605868,4.324215359,2.119322902,0.900667355,2.080908908,4.824562012,-5.248011365,2.277917896,-9.232313716,-9.076759995,-7.400130698,-0.766718534
-4.93719174,-4.920379529,-2.816961017,6.759111697,-0.212818237,1.187211675,7.45308159,8.083094531,13.33319395,8.095811148,9.893243586,4.569997565,11.86579994,-3.181214391,4.119748042,-10.13528667,-12.69623559,-9.6453179,-4.250912316
-3.963358905,-4.018332213,0.106159258,11.77842031,2.357297676,3.342147439,14.76965613,15.04153799,21.74474178,13.42890844,18.61973238,6.363688401,17.61369009,-1.394345965,6.696788281,-9.229786335,-14.67438394,-8.758191167,-6.356338896
-2.109808864,-2.185716902,3.483357019,15.23109333,4.668539547,4.841495906,19.67687842,19.47890222,26.74229935,17.26089127,24.56953011,8.710050722,20.26086467,-0.656341601,9.449941406,-7.269093149,-15.01502564,-5.643083574,-6.839510884
-0.002544622,-0.162447159,6.551477529,16.81051015,6.477853006,5.499794534,21.31309003,20.45964063,27.23484862,19.08981145,26.92127798,11.89338515,19.97456182,-0.873933482,11.34145288,-5.324083174,-14.16788251,-2.171679407,-6.25892548
1.713680953,1.291228062,8.624010778,16.80630424,7.55605794,5.504415342,20.28293139,18.62150341,24.46091577,18.91461788,26.59635693,15.08181056,18.40200376,-1.298318775,11.62591319,-4.118617721,-12.74110638,0.065402367,-5.534386723
2.726419654,1.802022985,9.405479425,15.84613865,7.78051309,5.167248645,17.9563842,15.58227736,20.98730225,17.20536876,25.13968085,17.05962206,17.22107737,-1.179017018,10.46216241,-3.629966006,-11.12630268,0.726812333,-5.354256303
3.15961633,1.559586938,9.077411069,14.5363397,7.191155321,4.648621551,15.45106141,12.82221573,18.86124235,14.67882622,23.41300788,17.11300315,16.90335676,-0.356384148,8.816859015,-3.230815073,-9.294539439,0.731490944,-5.810513731
3.391546963,1.134000583,8.104249529,13.17813828,5.973567959,3.86778804,13.04444898,10.82781023,18.26259316,11.93866724,21.10292103,15.32670326,16.56086082,0.636722383,7.688898409,-2.251858206,-6.908773689,1.36650882,-6.443869361
3.748489896,1.046019951,6.891871033,11.67248988,4.381580632,2.641437505,10.33287774,9.021012595,17.57855045,9.145107203,17.30446236,12.18044619,14.84098268,1.005365681,7.268625182,-0.538715122,-3.670111646,3.211830891,-6.599046378
4.295989317,1.380379633,5.526958831,9.631310431,2.643427889,0.905277065,6.854019615,6.402748936,14.7488177,5.928695404,11.57951392,7.986704809,11.0643994,0.300229878,6.739120574,1.40539126,0.353273007,5.696150033,-5.822608613
4.845436118,1.718066146,3.770814939,6.632526484,0.896660464,-1.175609183,2.598292732,2.372358461,8.83580177,1.668816266,4.579664396,2.78356862,5.729607862,-1.262635362,4.92871113,2.77853836,4.646397537,7.572878858,-4.068400431
5.12630684,1.450336504,1.312457069,2.507660197,-0.823369927,-3.288173777,-1.967697042,-2.843373277,0.704862976,-3.973741508,-2.247889525,-3.245506073,0.100141238,-2.992769005,1.327439251,3.052807083,8.461297261,7.893758533,-1.64442567
4.973694458,0.264043158,-1.889724688,-2.466142314,-2.543967005,-5.15825358,-6.282620495,-8.357355595,-7.565297059,-10.60455841,-7.588472174,-9.354847686,-4.687253304,-4.253585811,-3.344113105,2.326623843,11.1618693,6.712000214,0.998665534
4.404041127,-1.552025534,-5.418886921,-7.57606032,-4.291151547,-6.679979995,-10.07708638,-13.16299403,-13.99488732,-17.07985396,-11.06357078,-14.40222509,-8.264683718,-4.909853737,-7.499724459,1.204560346,12.46548376,5.004695376,3.475075996
3.555883699,-3.224683945,-8.519046342,-11.91771219,-6.040771896,-7.892913436,-13.42779119,-16.63823069,-17.76240845,-22.02555691,-13.30511414,-17.59635837,-10.99421564,-5.359799531,-9.74541153,0.312242982,12.44999264,3.924656472,5.554763892
2.566836146,-3.989755251,-10.48096637,-14.78580332,-7.716007842,-8.851800791,-16.47677627,-18.72609667,-19.35106911,-24.59732104,-15.29903821,-19.16607567,-13.39163355,-6.150823819,-9.839157604,-0.183208984,11.37477232,3.977383585,7.125028207
1.482887305,-3.632143793,-11.06189481,-16.01256766,-9.230521181,-9.518742374,-19.10537657,-19.77473474,-19.85087373,-24.95602138,-17.54384402,-20.2266983,-15.5368747,-7.49763922,-8.827058476,-0.69841297,9.477275386,4.718671714,8.090326367
0.255491297,-2.681018023,-10.65189234,-16.03749999,-10.53632221,-9.770723622,-20.86227708,-20.2147117,-20.04324799,-24.08095911,-19.65311508,-21.79534193,-16.93056338,-9.085387946,-8.259737296,-1.928726148,6.88028726,5.132537977,8.30354017
-1.18002936,-2.089172535,-10.03835958,-15.61804026,-11.62015581,-9.50205821,-21.20126762,-20.27512821,-19.91592964,-23.00911618,-20.6424582,-23.74953264,-16.86664126,-10.30858557,-9.087620161,-4.347861729,3.627724932,4.348406997,7.593351509
-2.795798792,-2.590902575,-9.884749447,-15.31424701,-12.42673185,-8.718791096,-19.82381456,-19.85202381,-18.82668934,-22.03825087,-19.62743545,-24.72586999,-15.00974305,-10.75474192,-11.05359923,-7.870881309,-0.230194856,2.164323362,5.887397811
-4.398564546,-4.185614596,-10.25992114,-15.06039326,-12.75776991,-7.540124294,-16.86229863,-18.55191667,-16.05221331,-20.49907094,-16.40952251,-23.22753305,-11.75377459,-10.55134074,-12.99238784,-11.90309879,-4.585733141,-0.945668742,3.35702462
-5.647519735,-6.138092501,-10.56345349,-14.12777188,-12.24768914,-6.113952367,-12.7990081,-15.88518596,-11.2753349,-17.2951862,-11.57717395,-19.10990412,-8.117262206,-10.29683835,-13.74774968,-15.71709865,-9.272593655,-4.260956342,0.466765753
-6.180407756,-7.53513277,-9.949073078,-11.55494131,-10.49268399,-4.529531666,-8.226090403,-11.54827055,-4.733645146,-11.81786494,-6.123617967,-14.11939844,-5.232747867,-10.60919254,-12.98019001,-18.88068546,-14.07390836,-7.325093461,-2.158417178
-5.805165143,-8.026068136,-7.995027954,-6.806989464,-7.305033995,-2.803519012,-3.633425812,-5.682307571,2.942161054,-4.531348295,-0.885179806,-10.80904038,-3.718289165,-11.61431392,-11.27763468,-21.44299649,-18.70627958,-10.19464826,-4.024697771
-4.654292003,-8.201398146,-5.154995519,-0.244008775,-2.946672543,-0.941334754,0.669174436,1.035872806,10.98899478,3.236943369,3.8444461,-10.50705487,-3.281320256,-12.75069283,-9.554754993,-23.7654048,-22.80069502,-13.31026822,-5.061672645
-3.185807621,-9.278731196,-2.626869577,6.922282899,1.83652322,0.990556408,4.518876471,7.560066775,18.68956268,10.14402706,8.332530576,-11.95430422,-2.80098783,-13.04976329,-8.265228651,-26.12296288,-25.93214531,-17.11513556,-5.701315297
-1.983612185,-12.24402121,-1.662642406,13.17496571,6.057024885,2.844581086,7.831683588,12.84084456,25.42829388,15.64344716,13.08865183,-11.88352486,-0.912572274,-11.72241047,-7.049106973,-28.34435257,-27.71603616,-21.65258656,-6.627164962
-1.440669442,-17.01010199,-2.753968976,17.39691235,8.900066978,4.429387781,10.53399312,16.18987414,30.68726388,20.10666101,18.39117529,-7.348501943,3.151935104,-8.671852976,-5.057622964,-29.72716575,-27.92113737,-26.33999977,-8.296395866
-1.515990991,-22.19784538,-5.259603121,19.28996443,10.07149687,5.559597941,12.48293484,17.42806668,34.04561769,24.15582821,23.89351554,1.843754635,8.915749599,-4.602088763,-1.669511392,-29.2977634,-26.51890563,-30.02168108,-10.53244641
-1.7465313,-25.76069991,-7.76915799,19.27414793,9.862098927,6.080025889,13.39147948,16.75707994,35.19774809,27.76580135,28.52181264,12.48427515,14.64242426,-0.657005522,2.953764233,-26.28966238,-23.63771092,-31.31103127,-12.49385712
-1.545635191,-26.10934686,-8.993126502,17.99881358,8.888213363,5.874928916,12.84228225,14.50046128,33.98218251,29.90922297,30.78191524,19.73519741,18.09832245,2.176768731,7.860939754,-20.59814418,-19.47833029,-29.13922516,-13.10123833
-0.618760845,-23.03881384,-8.589325526,15.85038149,7.681055881,4.901040571,10.47372299,10.94355645,30.42605303,29.10275284,29.41615716,20.15598585,17.75758093,3.535119106,11.81302241,-12.98128838,-14.28708333,-23.31901096,-11.68441885
0.778303404,-17.86953007,-7.364614761,12.80184516,6.393333924,3.251366025,6.295014194,6.381487638,24.81199469,24.48721663,24.12902269,13.85470865,13.74845159,3.745842094,13.91242085,-4.899477136,-8.425240768,-14.85128722,-8.429753251
1.930000377,-12.71860706,-6.718565479,8.662890365,4.802086366,1.194749286,0.920409684,1.266495755,17.73494049,16.62364525,15.96692107,4.277744247,7.891489797,3.499371351,13.95196266,1.948929579,-2.461390346,-5.742640974,-4.317656314
2.062331936,-9.372032727,-7.717567266,3.485111252,2.578247067,-0.882095266,-4.521622965,-3.765654356,10.07265621,7.38025646,7.03968616,-4.113020544,2.706610519,3.360806417,12.33569327,6.204427692,2.846479573,1.686861787,-0.582943753
0.801649662,-8.454848449,-10.42743654,-2.216640035,-0.382022392,-2.637429318,-8.858006975,-8.098947524,2.814609964,-1.027303218,-0.372584715,-8.545979099,-0.03875198,3.438064351,9.730841201,7.298120433,6.748130347,5.729074171,1.939918966
-1.604887409,-9.35493065,-13.92518241,-7.595356374,-3.791414626,-3.944718922,-11.46818305,-11.43595721,-3.206163935,-7.147038745,-4.867868055,-9.17686029,-0.30115969,3.395130083,6.738311806,5.597931444,8.795195578,5.980908978,3.15571856
-4.438991864,-10.83781163,-16.92348889,-11.84319735,-7.065732651,-4.929929752,-12.58984058,-13.91502405,-7.530815462,-10.77774299,-6.494722045,-8.239421056,0.409325684,2.766928286,3.766122261,2.201643758,9.038174948,3.422170033,3.545281706
-6.912897645,-11.86713688,-18.53886251,-14.52504891,-9.594838454,-5.816949912,-13.06591138,-15.88497905,-10.09601417,-12.57610341,-6.470653181,-8.03846058,0.227345411,1.34541773,1.085934449,-1.522336938,7.968381993,-0.166960943,3.682307861
-8.55091159,-12.09500535,-18.69563139,-15.66029413,-11.01020248,-6.679847481,-13.66545465,-17.47821691,-11.04638101,-13.21118455,-6.220435752,-9.37939472,-1.685047964,-0.622499069,-1.076476602,-4.4473719,6.220560037,-3.110534005,3.820328893
-9.323935153,-11.79848184,-17.97332311,-15.55456227,-11.30401448,-7.302537749,-14.4590491,-18.34537136,-10.4939105,-12.79219876,-6.381317881,-11.42354748,-4.547995408,-2.54859697,-2.540935274,-6.048082255,4.230576523,-4.555646645,3.836046511
-9.503290847,-11.44710214,-17.10533734,-14.56062439,-10.76973745,-7.288127153,-14.72926724,-17.83281372,-8.433854386,-10.99397929,-6.454542556,-12.72617908,-6.562805378,-3.845733649,-3.264215268,-6.481662963,2.078693763,-4.651927815,3.501166596
-9.386222062,-11.28868769,-16.52201815,-12.94991406,-9.833072662,-6.367035595,-13.51372596,-15.52754365,-4.899252173,-7.682585801,-5.323804241,-12.40464695,-6.22969999,-4.272891322,-3.423301103,-6.390318159,-0.393178739,-4.193504997,2.795910157
-9.092853728,-11.22660267,-16.20313093,-10.92878449,-8.868021009,-4.675220833,-10.39222029,-11.74941896,-0.219407901,-3.425199088,-2.235008865,-10.55531149,-3.409890947,-4.062769,-3.387709127,-6.534128506,-3.309580136,-4.025544265,1.980038385
-8.534632106,-10.97354224,-15.81926643,-8.687821554,-8.060479948,-2.767251826,-5.924190935,-7.548471113,4.875197154,0.61517231,2.497287555,-7.862480949,0.611454811,-3.756646841,-3.559681107,-7.416534213,-6.558669771,-4.574944819,1.379504741
-7.512299936,-10.26053184,-14.95178073,-6.363606125,-7.34543589,-1.317937668,-1.393212376,-4.12383578,9.467321481,3.369143153,7.575982797,-5.003285422,4.037677426,-3.857322897,-4.156485859,-9.049759615,-9.801438386,-5.693884327,1.105637214
-5.835194703,-8.906928748,-13.21727256,-3.919684275,-6.433849991,-0.710175188,1.964437797,-2.052808866,12.90071289,4.607644406,11.5257836,-2.412724545,5.724766496,-4.518809321,-5.054148305,-10.94189991,-12.6461311,-6.781587632,0.972786262
-3.39451698,-6.753819672,-10.30054368,-1.086018263,-4.942530342,-0.808197933,3.684259475,-0.915575174,15.15929042,5.153877601,13.62078978,-0.416476806,5.763412793,-5.456757269,-5.78786517,-12.29990316,-14.81012426,-7.04378865,0.686175738
-0.203072179,-3.625202657,-6.020558779,2.505742903,-2.607293395,-1.084326912,4.235984643,0.362154134,16.87708149,6.366389293,14.27576775,0.689598854,5.161328818,-6.116508535,-5.731491663,-12.36151992,-16.13142824,-5.78517393,0.11763885
3.558161427,0.546809712,-0.496956336,7.008847886,0.505035692,-1.001685037,4.544326256,2.665273516,18.91431896,9.231490153,14.65741139,0.892858706,4.998874751,-5.977653899,-4.391080573,-10.71861462,-16.45924496,-2.696225254,-0.593752546
7.494241159,5.485829867,5.683401371,12.07035064,3.915258336,-0.36579477,5.262717782,5.957302884,21.74166334,13.66825627,15.83199532,0.80536139,5.748009593,-4.807191396,-1.679803925,-7.493630785,-15.58689418,1.91716976,-1.212824673
11.01980927,10.44464634,11.49633524,16.80816562,6.873803721,0.604819457,6.342837675,9.210207086,25.02988072,18.48346462,18.05282069,1.550099378,7.188737687,-2.732033092,1.973065611,-3.288846598,-13.358356,7.088265156,-1.686687294
13.5116895,14.38352286,15.80514571,20.14735205,8.693598281,1.509233987,7.172764422,11.0637073,27.73252363,21.97986271,20.62852235,3.977119947,8.809345498,-0.132636604,5.764308663,1.07053152,-9.901381046,11.46403598,-2.251464181
14.5559325,16.42664846,17.84710761,21.35207657,9.101506324,2.083991355,7.108119417,10.74733546,28.64536882,22.83743436,22.37464627,7.706593202,10.2232471,2.534532338,8.866379925,4.876224949,-5.777379197,13.88184775,-3.233677837
14.15036783,16.32578065,17.5800528,20.4252243,8.389262532,2.352173238,5.953190041,8.613387718,27.1258443,20.77590885,22.28513212,10.89273488,11.2432826,4.866346266,10.80684502,7.788955826,-1.853748689,13.98117667,-4.695656283
12.71137659,14.60254745,15.64247325,18.10570561,7.245935478,2.506514157,4.04882154,5.918849737,23.54455939,16.6715168,20.00522338,11.19194249,11.66501161,6.550089472,11.65226934,9.874409164,1.089256539,12.44863946,-6.24216226
10.84656624,12.23735691,12.93723873,15.44491564,6.351202422,2.661593877,1.970859685,4.026514258,19.18222909,12.09453972,15.90987038,7.433036316,11.11391006,7.35419301,11.86737217,11.41320268,2.769399568,10.64819755,-7.197400614
9.018900557,10.08742089,10.11400397,13.21752999,5.971482717,2.710792067,0.136176356,3.576217225,15.59580066,8.502156432,10.86713775,0.752433617,9.228352903,7.147157067,11.92379649,12.60574127,3.524439718,9.785752981,-7.056579462
7.315944681,8.413760267,7.292172801,11.53014388,5.812649417,2.417605617,-1.369500223,4.155382816,13.7869177,6.478490846,5.893780998,-5.81590043,6.0765849,5.967526033,11.91513534,13.35710849,4.027848983,10.12460641,-5.871174017
5.475449855,6.826842453,4.184635342,9.86288681,5.227959536,1.658385979,-2.660478654,4.632093724,13.64513064,5.421028652,1.86336109,-9.184964076,2.408954084,4.087476594,11.45684469,13.28143878,4.783234801,10.80117733,-4.256746339
3.146279356,4.672946083,0.495981032,7.50373175,3.657281056,0.599829657,-3.794292384,3.889577783,14.01847748,3.899262837,-0.677640704,-8.22970452,-0.578759306,1.980773225,9.970795672,11.93271636,5.758505321,10.41228972,-3.001464631
0.206916017,1.587317971,-3.706266119,4.094608633,1.028689334,-0.350323664,-4.638012166,1.497476408,13.42401461,0.572352653,-1.582318032,-4.485544808,-1.896942578,0.159344988,7.181181672,9.128280104,6.423133384,8.002675706,-2.566214114
-3.066440592,-2.157453813,-7.896405369,-0.048202312,-2.12255831,-0.791219745,-4.960021012,-2.043171791,11.01937178,-4.817268856,-1.058631248,-0.991594379,-1.379667193,-1.054768365,3.473375689,5.168258433,6.15071116,3.776476716,-2.845851916
-6.080556774,-5.72384528,-11.30423217,-4.025285396,-4.88985097,-0.587000351,-4.639509557,-5.56053051,7.247244901,-11.01303888,0.483019996,-0.13831974,0.19862078,-1.685757685,-0.169754358,0.80804651,4.679573438,-0.964484901,-3.344901983
-8.19036104,-8.134324976,-13.26584658,-6.787774742,-6.447844103,0.054582913,-3.796758303,-7.789219008,3.705981747,-15.76259835,2.616925323,-2.118277802,1.608775906,-2.07720776,-2.66219428,-3.019281346,2.296506714,-4.606577823,-3.594491167
-8.981911562,-8.767078519,-13.48542245,-7.645175794,-6.46280229,0.725638353,-2.735170932,-7.952885838,2.258459525,-17.07789092,5.005049328,-5.070277374,1.910555186,-2.680324647,-3.439834801,-5.58961714,-0.363164933,-6.174757946,-3.470073695
-8.419466391,-7.62686267,-12.08286776,-6.550483179,-5.234306631,1.061829681,-1.751031371,-6.079968913,3.90348425,-14.46630188,7.356238327,-6.67338564,0.945636567,-3.774537491,-2.797127191,-6.677047063,-2.711227227,-5.794191217,-3.186883938
-6.801200917,-5.262441925,-9.453502493,-4.015364051,-3.500477794,0.91393977,-0.96181156,-2.926660127,8.14263381,-9.277577549,9.330708315,-5.865241953,-0.697999288,-5.282253437,-1.683698838,-6.589508634,-4.484094966,-4.39451729,-3.034209051
-4.575097411,-2.42068149,-6.055799933,-0.738531746,-2.027754982,0.360803863,-0.266097699,0.433582478,13.28672579,-3.860121573,10.5743212,-3.372904809,-2.122046669,-6.780172558,-1.06286696,-5.933109474,-5.719104284,-2.946912364,-3.111216509
-2.122882418,0.339723895,-2.239243786,2.800116349,-1.220079176,-0.392585643,0.563204858,3.135600194,17.51242443,-0.066157236,10.9702395,-0.784953353,-2.585335691,-7.691190889,-1.23832997,-5.237849764,-6.50978073,-1.829714836,-3.285090779
0.385129154,2.863615483,1.829338604,6.521099377,-0.961227457,-1.126206641,1.731308457,4.882442958,19.94005559,1.843316359,10.94103773,0.929624403,-1.723186035,-7.544790638,-1.59973638,-4.656807184,-6.791559767,-0.75670018,-3.366696414
3.004858255,5.354078016,6.131024991,10.60380712,-0.762843364,-1.660142366,3.299432076,5.946429666,20.97701122,3.104660955,11.4534568,2.187708644,0.478293504,-6.175797368,-0.981405183,-3.912185656,-6.354159164,0.769649904,-3.305074621
5.901051671,8.124478785,10.67213396,15.14506123,-0.110838237,-1.868181667,5.12431073,6.834772678,21.7148102,5.267399739,13.50708021,4.262472355,3.759065646,-3.785995847,1.56878964,-2.521277253,-5.057637167,2.912123857,-3.21077519
9.154278442,11.30417914,15.32607497,19.87839354,1.209936929,-1.696940654,6.867671046,7.864926832,22.8897963,8.85900734,17.31439013,7.984623258,7.580397323,-0.868914246,6.093412124,-0.168506323,-3.04325336,5.310179641,-3.205237925
12.59401369,14.66604767,19.72783468,24.17092819,3.00844281,-1.199637713,8.085204124,8.957404642,24.25146037,12.95059869,21.77602139,12.8038829,11.11498551,1.954175046,11.56018433,3.006139356,-0.736130644,7.360153489,-3.271033937
15.76424495,17.67212202,23.3116054,27.31499279,4.844380511,-0.541022385,8.394537849,9.785149287,24.84103587,15.94155854,24.8196623,16.98856903,13.41626033,4.129769762,16.36068132,6.391861553,1.378470086,8.682209154,-3.273417994
18.06967374,19.71306608,25.51299957,28.91388799,6.318669759,0.067366915,7.669196694,10.12831692,23.92028178,16.88096253,24.60198161,18.79003212,13.81629934,5.347386149,19.18271909,9.190975347,3.025644611,9.36560707,-3.142444635
19.04349249,20.40490637,26.03776852,29.08472804,7.283225838,0.477686782,6.144392295,10.10427271,21.72828876,16.20330764,20.84195357,17.65262581,12.33837316,5.640982318,19.71522559,10.83475184,4.238793114,9.804191702,-3.024454776
18.58490668,19.76568625,25.01829667,28.32870829,7.828473056,0.677980032,4.328811683,10.04302806,19.37039651,15.25784939,15.27028172,14.57419528,9.785059129,5.362633861,18.7360733,11.26621897,5.21394748,10.29106979,-3.215127122
17.01089836,18.1599289,22.92557117,27.16221119,8.085526095,0.758432135,2.730708452,10.09816083,17.88408291,15.04782634,10.6857129,11.41572346,7.339128011,5.005805059,17.52162304,10.89838382,6.05395481,10.72932546,-3.886475905
14.87482531,16.04355405,20.27256056,25.77945529,8.028517128,0.795210236,1.558884641,9.954788692,17.27187954,15.28996467,9.124677847,9.7140821,5.881022812,4.930492724,16.95854401,10.26677147,6.621990233,10.69199706,-4.838877926
12.66048686,13.67819238,17.31459275,23.99072506,7.46023851,0.7584518,0.616380323,8.961096227,16.38691219,14.64605311,10.4128691,9.803667291,5.479326716,5.124845486,16.94280846,9.60802739,6.623465024,9.757039799,-5.534371323
10.55071233,11.01318929,13.97572691,21.46615401,6.205308309,0.538727349,-0.512183553,6.658838326,13.87132928,11.96369638,12.21528227,10.71542021,5.417181136,5.158536015,16.47010476,8.660997233,5.84062501,7.822923997,-5.450359548
8.419178692,7.821760431,10.06452569,18.07899417,4.344671435,0.077047028,-2.102644588,3.302365238,9.425335858,7.455117631,11.65162989,10.76672252,4.731537328,4.397350202,14.36190856,6.844761126,4.321767293,5.154763207,-4.505579631
6.033860214,3.994040628,5.606914215,14.0715047,2.266468691,-0.526263309,-4.038098828,-0.113953977,4.317172044,2.743210778,7.354452783,8.419034768,2.867679686,2.387484273,10.13570251,3.70637743,2.374309454,2.159716747,-3.205204079
3.310855674,-0.232313492,1.014074768,9.918808747,0.446074116,-1.048513137,-5.873641767,-2.444671307,0.599467215,-0.348137617,0.457396786,2.998173959,-0.012075094,-0.814686797,4.419811853,-0.668539335,0.377984282,-0.884356845,-2.341365079
0.43420848,-4.285007861,-3.073217984,6.018319503,-0.897118207,-1.326180937,-7.184130564,-3.203978765,-0.433434514,-1.276296303,-6.229718653,-4.940373236,-3.238113028,-4.589710552,-1.378288706,-5.577215883,-1.424753254,-3.911076408,-2.433178385
-2.224499845,-7.515407369,-6.152671945,2.477240508,-1.982089263,-1.433054487,-7.920921998,-2.958431659,0.686488823,-1.249215007,-10.2312895,-13.69093718,-6.13989795,-8.041888517,-5.920241066,-10.02148621,-3.002417643,-6.915120433,-3.316253444
-4.294147734,-9.517024422,-8.136811738,-0.813664795,-3.297588827,-1.678833792,-8.477922018,-2.934917882,1.94244601,-2.201215884,-11.06913322,-20.96326825,-8.443691947,-10.46521264,-8.704445125,-13.21412151,-4.439101348,-9.737438124,-4.203203391
-5.539286906,-10.27073638,-9.29159691,-3.878091081,-5.164521345,-2.386808635,-9.390496708,-4.085218505,1.407562456,-5.060871403,-10.33518689,-24.84863303,-10.30398625,-11.69467743,-10.21286625,-14.91943546,-5.773032246,-11.99749433,-4.192857558
-5.856044714,-10.01669781,-9.86930513,-6.386048144,-7.351115159,-3.603862311,-10.88747346,-6.305505612,-1.158825293,-8.751793464,-10.19461777,-24.82211184,-12.0289431,-12.11077132,-11.34731327,-15.39748084,-6.906080773,-13.23404804,-2.873026072
-5.183895808,-8.966724028,-9.740226847,-7.670755468,-9.0647397,-4.980424301,-12.64204329,-8.423970853,-3.991318828,-10.82271989,-11.56879171,-22.17951592,-13.7683863,-12.29147017,-12.58647565,-15.01251312,-7.638938457,-13.12290308,-0.597369026
-3.466145354,-7.096270885,-8.358537782,-7.060267102,-9.382479398,-5.944203925,-13.91586534,-8.986954308,-4.593324289,-9.276899343,-13.45352325,-19.43718861,-15.38403072,-12.54572143,-13.50146237,-13.81582706,-7.774701766,-11.58345916,1.736600809
-0.733814257,-4.190522049,-5.142936621,-4.300794948,-7.846609056,-6.06040644,-13.98751378,-7.255469456,-1.648685291,-4.159110655,-13.85955353,-18.82263173,-16.51305253,-12.6464422,-13.00110125,-11.43337516,-7.192864708,-8.709998963,3.224273273
2.752270162,-0.113996402,-0.009384817,0.229602439,-4.804550972,-5.312740521,-12.55182032,-3.672189503,3.91921428,2.380221791,-11.53012043,-20.71162849,-16.69096022,-11.94712541,-10.13380212,-7.361266806,-5.850781497,-4.641639233,3.426938855
6.455137722,4.910042211,6.356418076,5.66165056,-1.241482061,-4.092491895,-9.830606197,0.50642304,9.567205259,7.604605838,-6.994916209,-23.12605593,-15.44190298,-9.806621806,-4.857909551,-1.464164961,-3.754367498,0.458823831,2.498191539
9.711083589,10.24007168,12.72300007,11.0156046,1.783000298,-2.910796078,-6.383135242,4.063530585,12.92979946,10.08184754,-2.132662819,-22.84373429,-12.3857954,-6.042978328,1.781297889,5.689166286,-0.966946079,6.270697409,0.960566201
12.0141256,15.04346534,17.90000423,15.55713085,3.701962172,-2.065353231,-2.822179468,6.47833957,13.38218015,10.46037441,1.309283913,-17.56507885,-7.456413714,-1.128072721,8.186849101,12.9139243,2.329363095,12.16722053,-0.6404176
13.24461778,18.66413364,21.28350887,18.92989004,4.63545262,-1.517300175,0.350391323,7.945942545,12.19768845,10.59348982,2.942049129,-7.721927492,-1.185719654,3.982945127,13.05833503,18.88926957,5.782407094,17.26127189,-1.958745973
13.67083359,20.8851973,22.99586359,21.07113581,5.127438539,-1.048451297,2.75258764,8.896741155,11.30000123,11.83472199,3.69891661,3.385211186,5.182303075,8.257096757,15.95310365,22.73168631,8.909063354,20.71479553,-2.864716553
13.71597064,21.92422386,23.56856663,22.07068796,5.673321622,-0.533788692,4.109931127,9.542531538,11.72326075,13.96037375,4.667461036,11.34408565,9.996716404,10.96869124,17.21501054,24.30865015,11.23814532,22.14333422,-3.351411912
13.65943062,22.1894663,23.44653093,22.11051986,6.402064167,-0.079680043,4.344387861,9.852809381,13.03146514,15.56733404,5.908764981,13.17270195,11.90762952,11.86718135,17.41805009,24.12386661,12.47814613,21.81631767,-3.469373598
13.48455028,21.97570757,22.68372433,21.46898815,7.104695526,0.087400737,3.711938721,9.875141889,14.03820901,15.49070615,6.352270418,8.954888869,10.59598163,11.10589811,16.8110792,22.88577563,12.59883409,20.46265236,-3.332643542
12.96024744,21.28675804,21.004068,20.46106371,7.503303464,-0.133313896,2.791710393,9.941087866,14.02795886,13.91562116,4.847633265,1.504273302,7.003680567,9.059435804,15.18424634,21.05170369,11.77753117,18.77412618,-3.12753906
11.85780348,19.85720855,18.10172296,19.24229545,7.483417556,-0.573272337,2.197309621,10.41345282,13.3048064,12.16343012,1.376255665,-5.623597823,2.814124231,6.178544589,12.19119862,18.61553077,10.26420225,16.93829493,-3.046613312
10.11230705,17.31527784,13.90162693,17.58667873,7.095567222,-0.89725353,2.137754191,11.13614394,12.59107025,11.33758502,-2.750320278,-10.33380012,-0.53714005,2.934781673,7.788330544,15.22364397,8.273737903,14.53379722,-3.166625945
7.812403745,13.37680139,8.598190127,14.87262585,6.37282733,-0.873697096,2.170121859,11.15736511,11.92245499,11.06536288,-5.972441052,-12.93218049,-2.660868677,-0.203792733,2.394903159,10.50458311,5.973263896,10.87361654,-3.381525038
