Channel 1 - P4,Channel 2 - O2,Channel 3 - P8,Channel 4 - T8,Channel 5 - C4,Channel 6 - Cz,Channel 7 - Fz,Channel 8 - F4,Channel 9 - Fp2,Channel 10 - F8,Channel 11 - Fp1,Channel 12 - F7,Channel 13 - F3,Channel 14 - C3,Channel 15 - T7,Channel 16 - P7,Channel 17 - P3,Channel 18 - O1,Channel 19 - Pz
38.89140009,46.47932966,32.01672143,22.04945212,29.14328157,23.82775567,-6.112926268,8.232103182,-17.80690338,16.2343467,-12.20471324,22.00029643,18.26742346,33.40508867,30.43099917,41.81558407,43.41575364,28.52316909,30.11656222
34.58852618,39.77305789,23.75487426,10.53913695,14.53922403,9.180004349,-42.8523443,-14.28645622,-61.83392915,-2.78280799,-53.77595022,-1.528015932,-2.929096842,19.30102899,20.58846634,35.22956903,35.85961079,20.19278464,17.86586572
18.22555715,20.99272084,10.7331196,-2.078437569,-4.755757147,-8.186283222,-60.57672371,-34.31860888,-98.31052687,-22.82444521,-89.39163968,-27.96820749,-27.7463237,-1.11409378,5.641007268,19.37848112,17.68731712,10.75723274,3.846513727
0.002004259,1.830840628,0.767744191,-9.097161317,-18.72158821,-19.04185502,-53.689784,-43.20643422,-112.5661438,-33.7806491,-105.369402,-45.26458869,-44.42458985,-16.58794285,-5.707986488,4.048563274,0.195979945,5.965764307,-3.825900084
-9.599135469,-7.106453264,-1.227243304,-7.906483578,-21.62230569,-19.39086995,-33.10560318,-39.88589328,-103.4576204,-31.83835849,-99.71180978,-47.61114846,-47.18867854,-20.33559665,-8.042970456,-2.672633489,-7.351765492,7.351029383,-1.971698745
-6.861377058,-3.264324351,3.80238993,-1.220011152,-15.19461796,-12.39074379,-16.67840389,-30.38680657,-82.46752309,-21.08721792,-81.97293448,-38.44667531,-39.22372328,-13.97238725,-2.621535817,0.289588458,-3.700697817,11.7120192,5.97461275
3.368046244,7.099009809,10.45060198,5.420975094,-6.389252871,-5.094048102,-15.55727338,-22.50811782,-64.47660164,-9.640226612,-65.599765,-26.98944879,-29.2611418,-5.200005933,4.24185288,7.103268741,4.646640083,14.09872418,13.05921578
12.09222643,14.43588625,13.22303343,7.767197239,-1.787695136,-2.883988402,-27.02117951,-20.09539646,-57.52654072,-3.612516209,-58.72692982,-21.28526606,-24.78270548,-1.481850399,6.246288946,10.09145305,9.185805334,11.72099464,14.07954919
13.04048998,13.11224216,10.39692604,5.482735357,-3.111975801,-5.94359412,-38.5957285,-21.21780408,-59.01203007,-3.532130173,-60.04135754,-23.07916723,-27.11295519,-4.767206153,1.573492655,5.577213306,5.871215973,5.725850941,8.992372354
6.702116317,4.820794467,4.597704836,1.563985905,-7.004799255,-10.13876129,-39.14843732,-21.09392818,-60.21521053,-5.427215308,-62.00261366,-27.99631539,-31.77217554,-11.06911264,-6.514206996,-3.926729713,-2.615974795,-0.26179858,2.148178372
-1.161498669,-3.881986602,0.090051877,-0.563708631,-8.6839789,-11.0734105,-27.60921913,-16.81395415,-54.58776275,-5.035855547,-58.02548891,-30.18778782,-33.13751588,-14.61182826,-12.94935536,-12.44049553,-9.992143311,-3.295234246,-1.597414458
-4.73286807,-7.317088281,-0.719620995,0.255447374,-6.137366733,-7.754368821,-12.70209254,-9.806561484,-42.85259505,-1.402437132,-47.65636003,-27.2958973,-29.25315594,-12.75769551,-15.01195796,-15.50927998,-11.79233002,-3.254112898,-0.580142936
-2.615440947,-4.884703029,1.22326748,2.449111299,-1.481795296,-3.006098326,-4.845599135,-4.269018173,-31.32914816,2.887650486,-36.03607059,-21.8231736,-22.9744966,-7.72667523,-13.99601867,-13.33776037,-8.553463303,-2.404661488,2.965844555
1.810652113,-0.678403398,2.997951693,3.503144116,1.255571154,-0.68196252,-7.550307467,-3.296154024,-25.73692729,4.529794914,-28.85045681,-18.27881442,-18.96422626,-4.115711859,-13.37513809,-9.850280668,-4.536454019,-3.080802598,5.334025283
3.887253587,0.556453015,2.43396,2.211670787,-0.287522086,-2.304665287,-15.34709874,-6.215627607,-26.16919072,2.618054403,-27.41791752,-18.94501762,-19.46382462,-4.727149501,-15.3945337,-8.9459984,-3.617524215,-5.65859567,4.560645348
1.712227729,-2.606936852,-0.214976834,-0.516756408,-4.965121219,-5.971362783,-19.28503627,-9.328544164,-27.37337475,-0.624777794,-27.94404085,-21.94577302,-22.48717043,-8.340586689,-19.10877544,-11.32682077,-6.094490451,-8.497857178,1.74054341
-2.653400971,-7.585103999,-2.871755601,-2.751081575,-9.358568454,-8.223416325,-14.7247717,-9.192239446,-23.64276213,-1.897431586,-25.16011878,-23.05283138,-23.75735209,-11.0987969,-21.38839048,-14.42112305,-8.95984836,-9.666972551,-0.376295154
-5.455350201,-10.50865007,-3.690814396,-3.328454473,-10.75625051,-7.061936508,-4.753587075,-5.472726322,-13.79724835,0.346895751,-16.93471991,-19.42523722,-20.48708674,-10.01247522,-19.78941432,-15.08685853,-8.995972927,-8.749430947,0.009134535
-4.675463667,-9.662341792,-2.627776002,-2.703069987,-9.225577214,-3.498116324,3.18815115,-0.960316152,-2.017408862,4.762822376,-5.945975367,-11.99952052,-13.71136115,-5.449876902,-14.69877786,-12.48959419,-5.716155275,-7.122961527,2.282063328
-1.574346114,-6.660284409,-1.231518146,-2.232626676,-7.145832823,-0.470712465,3.981785084,1.074645027,5.876665057,8.487469157,2.73807237,-4.613825017,-7.325034183,-0.603046237,-8.98020799,-8.673943279,-1.604151222,-6.589710237,4.216217318
0.782128105,-4.626637531,-1.04839366,-2.736063679,-6.865021196,-0.252800538,-1.129780431,-0.256811917,7.242891034,9.637868243,5.856848435,-0.80570081,-4.841117859,1.363330915,-5.585947416,-6.559547714,0.312187494,-7.712470175,4.108562212
0.438241201,-5.286182323,-2.201767807,-3.729802216,-8.664836187,-2.626469833,-6.295140197,-2.853786363,4.430243552,8.712802592,4.362469428,-1.07926698,-6.683016053,-0.112575175,-5.271981571,-7.334495582,-0.816057994,-9.382020721,2.250950351
-1.782663302,-7.610599484,-3.407225659,-4.007200641,-10.74263547,-5.259846467,-6.540631474,-3.642498566,2.355915999,7.821310692,2.257244259,-2.827932684,-10.15303266,-2.819870264,-6.296580538,-9.572032419,-3.086825482,-9.941771496,0.498042466
-3.237912807,-9.056394866,-3.297347629,-2.930652355,-11.02464519,-5.758566528,-1.921714446,-1.303360968,4.279388753,8.625702,3.170413875,-2.731741929,-11.84441687,-3.919153682,-6.168905128,-10.71076866,-3.792242793,-8.776051433,0.464640348
-2.021749558,-8.066317877,-1.764161789,-1.165751487,-9.056443713,-3.530464477,3.124438289,2.699137637,9.484083496,10.91400813,7.679194935,0.556816276,-10.30487044,-2.367392193,-3.805553124,-9.429437648,-1.979954145,-6.903282058,2.058523232
1.259092377,-5.502543947,-0.093551976,-0.151784158,-6.302597866,0.039230078,4.218307024,5.567070026,14.58064878,12.9910692,13.42175551,5.630031294,-6.802260187,0.441908202,-0.280613209,-6.775021725,0.712427721,-6.074401449,3.643679303
4.040827484,-3.802221579,0.180250426,-0.804771344,-4.721284854,3.02028078,1.023103133,5.677218708,16.87184057,13.37115476,17.50774968,9.827137472,-3.852543396,2.154953173,2.277371885,-5.146328637,1.624548796,-7.238260209,3.598041263
4.098366894,-4.749144432,-1.376780314,-2.664804314,-5.011286121,4.552869767,-2.740977742,3.889916795,16.608797,12.14120926,18.90272902,11.47711281,-3.046608028,1.537098609,2.489707951,-6.171010318,-0.467762803,-9.764615347,1.795998781
1.48575386,-7.921639798,-3.750444505,-4.284867964,-6.113734564,5.247350603,-2.987208118,2.591429251,16.28198125,10.78350335,18.81067394,10.93239539,-4.068528348,-0.703903705,0.638913687,-9.400418741,-4.246462176,-12.07774981,-0.317732722
-1.563511305,-11.1466704,-5.388887918,-4.51570545,-6.321309322,6.205793581,0.908046457,3.461014155,17.92578699,10.72173021,19.06570808,9.740653534,-5.502190087,-2.893529017,-1.933660338,-12.88144344,-7.042854244,-13.06589281,-1.081077444
-2.600673756,-12.43646343,-5.511834196,-3.524233295,-4.887994735,7.750413669,5.625481031,6.022851415,21.13156586,11.99958186,20.27731251,8.998465954,-6.3823643,-4.043500197,-4.170736049,-14.9340226,-7.184622598,-12.96990793,-0.138138512
-1.008320315,-11.61596477,-4.664481962,-2.628584503,-2.656412255,9.096183192,7.069187442,8.229383527,23.60069778,13.30578832,21.46768324,8.502604749,-6.93722854,-4.569147767,-6.064616348,-15.45864777,-5.371750099,-12.98501605,1.232749186
1.62233196,-10.24608108,-4.098835391,-3.104164451,-1.197212138,9.215690986,4.17447752,8.439949223,23.57816141,13.2701479,21.37566811,7.370539122,-7.928329317,-5.491392741,-8.231172989,-15.66233004,-3.90126139,-14.00589391,1.251790297
2.992180582,-10.04705902,-4.616397108,-5.035725576,-1.331878816,7.993393016,-0.109284393,6.931975119,21.75589184,11.78870468,20.02362376,5.338348437,-9.412293627,-7.044492022,-10.87301595,-16.61298952,-4.517608525,-15.70518844,-0.795129675
2.059733681,-11.33287956,-5.923786377,-7.236651753,-2.425588331,6.516639689,-1.470110757,5.57992462,20.79951245,10.14546901,18.98155484,3.348449145,-10.27827939,-8.153510031,-13.25450952,-18.07641896,-6.853767774,-16.78917521,-3.925082493
-0.231176635,-12.84255106,-7.012566739,-8.292127022,-3.06727186,6.188964288,1.942794655,6.048263725,22.9255564,9.832861839,20.06562169,2.808546305,-9.110928841,-7.358857317,-14.23804014,-18.73323927,-8.823772954,-16.17225721,-6.272139231
-1.962310308,-13.0048538,-7.124250741,-7.783364411,-2.454652685,7.465942336,7.935805624,8.191578865,27.79169561,11.16959237,23.69532859,4.243975972,-5.601485667,-4.326361694,-13.34589871,-17.51295746,-8.538987803,-13.97449086,-6.597459045
-1.952482735,-11.3851269,-6.377651694,-6.604973713,-1.17444752,9.37530861,12.23215051,10.13737974,32.67921481,12.98819253,28.43407356,6.68709354,-1.144932045,-0.462548623,-11.27279252,-14.71774998,-5.982989215,-11.42447602,-5.197611188
-0.623637979,-8.98698403,-5.519137688,-6.108475159,-0.659173756,10.27963516,12.11913588,9.980275054,34.84345925,13.6832009,32.13147262,8.470907797,2.038852479,2.057162016,-9.28933947,-11.8217812,-2.963236388,-9.758287067,-3.505423047
0.635977597,-7.211259437,-5.10142375,-6.845416547,-1.835498423,9.230652293,8.550266848,7.55781441,33.93274574,12.68282808,33.6391915,8.765632542,2.589132979,2.071999595,-8.04828315,-10.09885852,-1.446622829,-9.115185532,-2.827527482
0.877763022,-6.516006917,-4.905697488,-8.021933314,-4.214770965,6.75062063,5.006877294,4.711178106,32.31775736,11.03458856,33.60579017,8.461178952,1.076564816,0.464074665,-6.913123191,-9.358759856,-1.818838151,-8.425467069,-3.344616692
0.415881835,-6.040788958,-4.150028055,-8.134999144,-6.258803706,4.395071029,4.353482916,3.789728723,33.04951491,10.58808306,33.74022577,9.543070891,-0.445655333,-0.515629527,-4.490779845,-8.011313751,-2.618168317,-6.388673358,-4.166512708
0.366477698,-4.508196237,-2.266566955,-6.229655495,-6.688736152,3.510228423,6.575534274,5.70470614,37.25439935,12.48421342,35.30289802,13.44246874,-0.027890834,0.912336503,0.042493291,-4.479777879,-1.928351048,-2.671918973,-4.258239184
1.442546436,-1.519701649,0.494321046,-2.706145853,-5.56138067,4.252057705,9.278221249,9.205615183,43.2152616,16.23222862,38.18350711,19.75749832,2.764937812,4.604517087,5.98035842,1.256136595,0.862655077,1.719528005,-3.336307703
3.203508587,1.972325794,3.190439849,0.965365829,-4.16670096,5.638879378,10.21512514,11.95310766,47.84287594,20.10393736,41.26921329,26.42545334,6.707094757,8.642599839,11.36463924,7.363286824,4.506504972,5.199100864,-1.97456851
4.464104832,4.436530203,4.910015617,3.3156383,-3.868490292,6.481216299,9.34589523,12.40469927,49.15190644,22.43179096,43.57570457,31.1725877,10.00118489,10.90383389,14.30813292,11.4066903,6.986553953,6.798195342,-0.948235726
4.43543558,5.041867295,5.416072419,3.805315348,-4.938770931,6.317900581,8.545128352,10.89037013,47.58490843,22.6849545,44.97498055,33.00320383,11.57758759,10.68235495,14.26768651,12.10890037,7.233538468,6.775375829,-0.517820404
3.483259524,4.266737853,5.145562064,2.904059432,-6.401106666,5.586932645,9.403868456,9.050180915,45.18641476,21.50071024,45.86396036,32.53647102,11.54943647,9.020534284,12.23386258,10.15211477,5.937114047,6.170348719,-0.318138158
2.773282242,3.315483286,4.62358674,1.413920575,-6.963869395,5.01418427,11.36608488,8.270723386,43.58237566,19.82742352,46.23466105,31.06681515,10.63952259,7.588195078,9.752295995,7.409582068,4.791920713,5.778426726,0.12763307
3.141751821,2.933685865,3.897875779,-0.237528918,-6.15813177,4.888287124,12.07188981,8.572822021,42.68426735,18.07835939,45.23228328,29.32271106,9.312993161,7.195008026,7.675576969,5.345674794,4.925244358,5.489692714,0.850154475
4.26730367,2.7480403,2.552494354,-2.094754721,-4.660774207,4.902053293,9.639228247,8.886086271,41.21045018,16.06316051,41.81479635,27.05793902,7.489386066,7.247113843,5.706588711,3.984324991,5.934014991,4.545648034,1.406349634
4.9401009,1.735364233,0.280697579,-4.187193575,-3.568161036,4.630162829,4.735287493,8.327809315,38.35636451,13.64335652,36.00490889,23.74263976,5.017820483,6.525551317,3.032315253,2.265547064,6.345596114,2.409000794,1.384842107
4.196732224,-0.644578006,-2.558180777,-6.06447529,-3.346539359,4.093927427,0.421388762,7.206379738,34.91129809,11.34950015,29.52928221,19.56913565,2.298010112,4.465471862,-0.62455696,-0.650388457,5.016720393,-0.592017486,0.894447436
2.274162129,-3.737317748,-4.977380613,-6.913082933,-3.446723714,3.816399988,-0.225460492,6.785735122,32.72961853,10.2557519,25.06535979,15.72137916,0.295391291,1.732980274,-4.525238484,-4.376352237,2.184167452,-3.434085429,0.497181058
0.488279903,-6.093512178,-6.025164141,-6.204545188,-2.919361008,4.306729805,3.335552819,8.045072056,33.08125081,11.15220642,24.52234664,13.59327544,-0.162629703,-0.376284967,-7.413729738,-7.496471401,-0.737628527,-5.204316409,0.610291316
0.120644826,-6.640718685,-5.507420082,-4.256847033,-1.42518034,5.492733055,8.636912125,10.62540939,35.48176301,13.76983721,27.69376959,13.66673497,0.846601007,-1.078596507,-8.493653408,-8.746647969,-2.356348882,-5.791099059,0.964476517
1.303052072,-5.575185576,-4.126796073,-2.119938967,0.327612356,6.683594469,12.24188741,12.99560842,38.13796325,16.82191061,32.39823139,15.11004505,2.302622873,-0.683672917,-7.977719746,-8.07354424,-2.380004538,-5.845349408,0.707885854
2.898193016,-4.173923042,-2.904658248,-0.808836514,1.147421569,7.135702342,12.5268053,13.75027898,39.60276049,18.91275442,36.03353299,16.50617081,3.071073948,-0.103514299,-6.744712327,-6.612439555,-1.64205863,-6.084131887,-0.841962422
3.483057933,-3.700825993,-2.387023397,-0.532382418,0.420129513,6.705693205,10.82301516,12.89655373,40.0758925,19.57689593,37.32547107,17.07407278,2.903798318,0.175148792,-5.482227133,-5.628961801,-1.151421516,-6.601705014,-3.43532701
2.561008833,-4.382488495,-2.318489243,-0.608833827,-1.305755723,5.970937569,10.01703551,11.95429273,41.10170588,19.56302607,36.92964666,17.27389965,2.689393653,0.607356597,-4.150093962,-5.405953861,-1.120364998,-6.818371597,-5.835874499
0.939025747,-5.34098848,-2.0382868,-0.161639056,-2.759005332,5.683630825,11.92719303,12.71770563,43.9083302,20.10654427,36.52312275,18.23147563,3.662874509,2.052044219,-2.262137753,-5.086668153,-0.877675852,-6.091509645,-6.611890166
-0.035485739,-5.493916337,-1.205788883,1.013981381,-3.033917386,6.048769848,15.76236764,15.69827423,47.91774509,21.79113612,37.24467155,20.49102364,6.216627179,4.674935693,0.312748653,-3.60543862,0.304057454,-4.407613015,-5.167968485
0.327185869,-4.574936989,-0.183667845,2.188963048,-2.3610793,6.494914543,18.91001918,19.56128962,50.84386557,23.94399784,38.78273355,23.23523482,9.349317927,7.3768074,2.835763392,-0.854342752,2.304773531,-2.517279588,-2.175902103
1.491921242,-3.35795462,0.263447323,2.28850949,-1.87171376,6.16779638,19.21857579,22.03820704,50.38484457,25.06028305,39.76049095,24.72331589,11.27427164,8.401983376,4.023010661,1.97501303,4.069297759,-1.395756302,0.944313508
2.236876546,-2.919847185,-0.329737564,0.822647475,-2.557654653,4.719075056,16.71022679,21.57671841,46.08856266,23.91169203,38.95476757,23.62927934,10.72523401,6.706451721,2.98826478,3.20465582,4.445048246,-1.515260734,3.048374372
1.780643131,-3.646284409,-1.66672566,-1.65116805,-4.338126424,2.686401043,13.31299393,18.42097101,39.80836121,20.47009875,36.27277036,20.15972716,7.903662105,2.922645752,-0.003808905,1.962213768,3.180044719,-2.555129946,3.95034298
0.482449285,-4.88736857,-2.878332001,-3.92900793,-6.048801257,1.117953775,11.04269147,14.33812627,34.39040477,15.97031739,32.74982103,15.99899962,4.317939534,-0.959879715,-3.644289676,-1.124237823,1.16174314,-3.751801132,4.252047929
-0.486090659,-5.54930926,-3.191374778,-5.066461675,-6.365159455,0.760851593,10.38535275,11.32188491,31.72517338,12.13081302,29.72405483,13.11618923,1.689205719,-2.999707373,-6.481624644,-4.377984772,-0.326951134,-4.519018332,4.56554829
-0.172206413,-5.056433634,-2.494935205,-5.012132505,-4.874511744,1.509182029,10.28482414,10.34806706,31.73892727,10.15173413,27.97007807,12.4099962,0.833778808,-2.666754438,-7.878838934,-6.262454368,-0.664817962,-4.776496457,4.880057992
1.349480109,-3.81115459,-1.341424836,-4.466973627,-2.406066732,2.564866412,9.551909178,11.06230013,32.97346798,10.1703017,27.4460836,13.26177722,1.368573371,-1.071552184,-8.263998615,-6.340233399,-0.322089044,-4.760566329,4.640955876
3.076238052,-2.771192323,-0.434432375,-4.167479877,-0.379138775,3.134648091,8.208951319,12.41731165,34.01576408,11.41969425,27.66174641,14.26834936,2.332698974,0.067276098,-8.539305905,-5.315651857,-0.308335944,-4.60339677,3.424373079
3.941777831,-2.574368036,-0.08668386,-4.272827771,0.252968798,3.039029892,7.453370818,13.54836579,34.45146158,12.83065983,28.16547339,14.4543402,3.07014844,-0.19720516,-9.22033967,-4.280348909,-1.175640599,-4.160026462,1.536038042
3.649323559,-3.023514666,-0.103660729,-4.379235248,-0.398779631,2.730869862,8.334971583,14.16636762,34.67093332,13.62189001,28.7118707,13.94782561,3.612244413,-1.450990018,-10.04669136,-3.884138775,-2.495451649,-3.264259205,-0.064359733
2.763257661,-3.370276127,-0.121647317,-4.064319319,-1.431992852,2.775664032,10.51464836,14.34483267,35.02546419,13.59004836,29.13583361,13.65857384,4.357831858,-2.506085333,-10.32659174,-4.073379246,-3.266121918,-2.11625711,-0.488513433
2.055880604,-3.081791707,-0.019391802,-3.374222352,-1.965538715,3.314538411,12.39640489,14.14676811,35.36487939,13.08346126,29.28851251,14.37916586,5.507135105,-2.521489515,-9.6157449,-4.43897984,-2.845688307,-1.330693391,0.333848276
1.765850012,-2.346197046,-0.001759253,-2.760539949,-1.773388585,3.998400825,12.58675323,13.56075785,35.42640114,12.77828434,29.24077772,16.15219817,6.856060705,-1.622008108,-8.08197545,-4.693273039,-1.535696356,-1.491504297,1.554374623
1.451848545,-1.851695343,-0.310095023,-2.546137122,-1.276931002,4.405930439,11.3157173,12.75409622,35.5280112,13.35315014,29.52682025,18.39212828,8.111204625,-0.527280785,-6.26209693,-4.802677456,-0.283534081,-2.571515598,2.061006698
0.533672008,-2.075156218,-0.885449082,-2.489026076,-1.037008977,4.499772555,10.41382289,12.23422135,36.62430015,15.13159406,30.99798406,20.50967859,9.318103262,0.347905266,-4.510267655,-4.754743265,0.207767726,-3.780207105,1.342644466
-1.026388057,-2.774915002,-1.342244525,-1.939865378,-1.275144578,4.659817418,11.74249412,12.58359998,39.44035577,17.8261516,34.17116283,22.36258235,10.87289583,1.389302583,-2.708581668,-4.33980752,0.131468461,-4.071925053,-0.156911434
-2.554325267,-3.178553846,-1.288007296,-0.507067096,-1.818164512,5.258772965,15.42656609,13.91844262,43.45500091,20.57865456,38.52297545,24.10887596,13.0256683,3.36093536,-0.526489186,-3.280042735,0.386300255,-2.955446929,-1.467095479
-3.164314106,-2.695456234,-0.676174706,1.395825879,-2.398583266,6.199427089,19.49112614,15.6039738,46.85275655,22.38106207,42.41873011,25.68040194,15.34577852,6.451346446,2.034133726,-1.617085348,1.713500352,-0.932873007,-1.905034902
-2.469702856,-1.490125693,0.154311113,2.709468381,-2.925445082,6.883089207,21.30427366,16.60973358,47.7542007,22.67671798,43.95048335,26.49067707,16.74158087,9.71679279,4.361292456,0.073340946,3.943971456,0.831472477,-1.578201971
-0.876201549,-0.381071026,0.790089667,2.563780681,-3.448864358,6.677849476,19.64172713,16.30371789,45.77242732,21.71759964,42.18568039,25.76633449,16.15985242,11.53093278,5.537493634,0.964082885,6.036642567,1.37057002,-1.183537587
0.769244042,-0.15150552,1.099568126,1.102427728,-3.919673108,5.4801452,15.63740321,15.01361108,42.46385966,20.35597574,37.88312127,23.26767366,13.44847521,10.75463259,5.003642066,0.604975268,6.879759836,0.610057708,-1.332552866
1.823305687,-0.890941332,1.289725595,-0.46482602,-4.082405701,3.858707337,11.85026323,13.80892693,40.11671452,19.37932832,33.06808165,19.73936642,9.647237949,7.670581028,3.020593011,-0.638520272,6.156774095,-0.654585942,-2.016267446
2.214880311,-1.945299351,1.621912483,-0.724910581,-3.689439603,2.635854649,10.28801406,13.61772199,39.83777334,18.9150133,29.74396322,16.61570477,6.401872442,3.883896724,0.532553949,-1.770311357,4.54139061,-1.44416078,-2.655253618
2.276708858,-2.49171003,2.089278232,0.813711587,-2.847031504,2.262139669,11.05783329,14.40739938,40.65080118,18.43057363,28.71036876,15.13914153,4.915213527,1.236992833,-1.453881008,-1.879017271,3.092862669,-1.344535482,-2.641171324
2.291210048,-2.201674792,2.399123019,3.25862142,-2.101027004,2.519523949,12.67150441,15.156397,40.51225973,17.36462856,29.35190602,15.56577656,5.232045772,0.58956288,-2.470826199,-0.810326493,2.411948165,-0.7054816,-1.860437429
2.226027811,-1.414915264,2.291783802,4.941734991,-2.076878258,2.787603317,13.55135097,14.68822609,38.41108637,15.8336579,30.44250606,17.06886729,6.372588793,1.394023535,-2.728455014,0.761416137,2.280768264,-0.189903061,-0.751399911
1.88496616,-0.729524366,1.867433713,4.627052913,-2.92979516,2.60788844,13.30971872,12.69053706,35.61606522,14.71835742,31.18887769,18.37627126,7.139211635,2.315756234,-2.776501171,1.907184078,2.033424474,-0.140946153,0.105376244
1.252867693,-0.450818363,1.5501194,2.354090905,-4.106500288,2.03766799,12.73362165,10.06076311,34.76153841,14.9352814,31.62330127,18.60339347,6.92072422,2.313567605,-3.054976064,2.153072599,1.249234646,-0.353147854,0.453450262
0.621212747,-0.430108827,1.661702769,-0.730222752,-4.700498075,1.507153588,12.68501022,8.275907193,37.38005051,16.45606274,32.12251405,17.65702988,5.912306785,1.306750666,-3.70915863,1.719242269,0.119468752,-0.419246687,0.463004086
0.327827854,-0.40351753,1.991139711,-3.349148852,-4.164229584,1.360517659,13.10540945,8.298462923,42.02368402,17.96971271,32.65065227,16.01848577,4.72233845,-0.00163244,-4.717210572,1.126175491,-0.802728757,-0.273794523,0.419780879
0.370279948,-0.433223267,1.81581341,-5.03109467,-2.791503446,1.536090867,13.11045866,9.900558711,44.81722649,17.63002416,32.54881303,14.24227929,3.829847193,-0.844096685,-6.066025538,0.58447208,-1.167406387,-0.37607411,0.340629402
0.319018139,-0.954881587,0.453114748,-6.245444655,-1.541347967,1.678678657,12.02831394,11.90926279,42.28018073,14.41370324,31.1288867,12.66060678,3.370878306,-0.971660591,-7.717261122,-0.231587386,-1.137061101,-1.323707127,-0.093759776
-0.319799512,-2.338821657,-2.085635212,-7.714027794,-1.324840412,1.546499241,10.28711749,13.10030347,34.22153853,9.016889222,28.51311266,11.47540789,3.320770773,-0.666610225,-9.399136046,-1.800365819,-1.152195924,-3.234619244,-1.217688493
-1.600305513,-4.383173297,-4.92637215,-9.58330221,-2.338736771,1.291654264,9.197555404,12.9763703,24.26062231,3.504757697,25.86535636,10.99283125,3.738637742,-0.320962753,-10.51586804,-4.117316234,-1.406989614,-5.472567677,-2.978379126
-2.984553965,-6.269903851,-6.864188809,-11.2159465,-3.988782437,1.323763835,9.762295379,11.85796975,17.38460546,-0.079185304,24.67830059,11.63308792,4.736141299,-0.065137565,-10.39939087,-6.422643897,-1.568282041,-7.001636488,-4.844933273
-3.738269357,-7.102610163,-7.207193022,-11.76080728,-5.43318517,1.881451471,11.62929023,10.36679906,16.40420549,-1.061303506,25.65110285,13.62990163,6.19603881,0.220677135,-8.781786377,-7.598530688,-1.031679255,-7.101112649,-6.137706699
-3.552917139,-6.586987281,-6.241755366,-10.94519659,-6.248762984,2.734553651,13.23693035,8.880559191,20.12434902,-0.369585634,28.11554712,16.7121915,7.600569904,0.621034624,-6.083460664,-6.944801521,0.511586191,-5.85308814,-6.503415208
-2.824686059,-5.243981491,-4.920611912,-9.34585871,-6.647575981,3.330195174,13.11496956,7.452774099,24.65395864,0.500405659,30.53922393,20.13956347,8.273102634,1.00498146,-3.199075229,-4.69271227,2.728067307,-4.011919176,-6.127470567
-2.303106953,-3.942885239,-4.030232465,-7.888103508,-7.106543695,3.274879133,11.20754063,6.154966693,26.69251567,0.866359357,31.7160248,23.14817273,7.923127218,1.178459253,-0.882458466,-1.826529322,4.850797662,-2.392770063,-5.508462602
-2.397668375,-3.155127359,-3.545391675,-7.035712341,-7.810593176,2.70949217,9.00676901,5.358325001,26.04020103,1.381324813,31.65949389,25.45616306,7.01992995,1.204258127,0.787547818,0.637836886,6.268602032,-1.303716898,-5.004217269
-2.770209067,-2.592828562,-2.723003528,-6.417160073,-8.456843088,2.209835882,8.327772559,5.557479082,25.32314634,3.25404395,31.47258261,27.38280778,6.588120731,1.507465697,2.401961262,2.328890347,6.973860316,-0.463403259,-4.549616828
-2.610541073,-1.555127711,-0.848427901,-5.234047505,-8.595288658,2.275707861,9.781171533,6.855291218,27.33878461,6.886214755,32.34783196,29.46432516,7.499043203,2.574330199,4.65774899,3.633713784,7.479221835,0.604269943,-3.78163355
-1.379055287,0.33783923,2.020907615,-3.082138298,-8.146492532,2.862987674,12.2879569,8.651135845,32.4196905,11.1875685,34.57483709,31.90426268,9.800136735,4.468555482,7.695814084,5.226198101,8.296422648,2.104402617,-2.444312012
0.643648191,2.700503352,4.969562392,-0.43345818,-7.549042297,3.395957172,14.05912896,9.959862961,38.09363255,14.25560426,37.37035949,34.34815034,12.63706178,6.616662112,10.89428527,7.451508293,9.45515812,3.83904803,-0.709543096
2.51517492,4.642199176,6.880548657,1.674393859,-7.337576829,3.271880751,14.15621112,10.20397678,41.24277268,14.89631865,39.58501504,36.17062479,14.8420299,8.111348803,13.28414357,10.05869034,10.48121479,5.452020129,0.863712563
3.388897285,5.500591711,7.276969933,2.484221774,-7.520303854,2.416587269,13.2376825,9.807035787,40.78146004,13.67259115,40.58344799,36.9874917,15.70382304,8.320854544,14.22578416,12.41255928,10.82134918,6.737367574,1.692127841
3.21295948,5.376903067,6.636955822,2.154795256,-7.376340122,1.385257495,12.84046649,9.98549707,38.47811483,12.51285726,40.51714719,36.90500673,15.29994144,7.302401666,13.7807365,13.9086664,10.30604489,7.683394481,1.55092036
2.742635526,4.977318927,5.930791762,1.612784125,-5.965137128,0.897645226,13.86975795,11.78600482,37.24048871,13.12732196,39.84506471,36.28687611,14.18048253,5.678790137,12.5067191,14.22403161,9.239072632,8.241893602,0.683950911
2.836490983,4.901290578,5.794829263,1.731029354,-2.998754254,1.204296625,15.67922897,15.09865284,38.43511223,15.52525243,38.68530822,35.30117124,12.77209868,4.10970421,10.92166066,13.29159607,8.075218317,8.129263573,-0.406413352
3.648314664,5.033419062,6.046824228,2.535627861,0.656575096,1.843569811,16.58330536,18.47896947,40.63623998,17.8902871,36.71066718,33.73620714,11.08874452,2.839249887,9.151594781,11.18790907,7.029529664,6.954142817,-1.286057048
4.43512677,4.613702654,5.923526575,3.12704897,3.343572726,2.015131587,15.34867842,20.00366656,40.90279984,17.9589069,33.71676036,31.31168136,8.997942443,1.704989756,7.06173063,8.157631573,5.995333603,4.624805477,-1.781191933
4.169877944,2.946993315,4.787670106,2.391349119,3.646855024,1.255898423,12.33145049,18.55734448,37.44127604,14.79562849,30.26196581,28.19568245,6.720202456,0.543416309,4.683057446,4.751276431,4.818956358,1.653251232,-1.947438271
2.440519087,0.121184197,2.671016645,-0.091556965,1.338603054,-0.162835541,9.243951683,14.59131486,31.30780742,9.529235826,27.62218312,25.17084429,4.981522809,-0.452487397,2.452528683,1.815861997,3.617526396,-1.007909596,-1.925241439
-0.139893932,-2.924068472,0.210583797,-3.690311756,-2.475726588,-1.455993549,7.754150914,9.8076076,25.66649356,4.482533972,26.91114498,23.1674871,4.554719979,-0.81517853,0.965739127,0.144216767,2.785972399,-2.563225234,-1.843985363
-2.366451832,-5.066792606,-1.902210722,-7.184718754,-6.105903389,-1.96534115,8.143788649,6.050128309,23.25696279,1.448912834,28.05125601,22.48437888,5.535695775,-0.275384264,0.432183313,-0.062055693,2.657278333,-2.948665623,-1.826487829
-3.346662435,-5.840643686,-3.423693141,-9.633769012,-8.335832358,-1.665670773,9.175617712,4.245384693,24.24773341,0.525575166,29.55284312,22.39497645,7.032251789,0.835054106,0.35982312,0.533256923,3.143583391,-2.876156523,-2.010239685
-3.110151591,-5.71687109,-4.568942537,-10.9309034,-9.021766591,-1.114929887,9.237120258,4.099032436,26.26161519,0.377075577,29.45883804,21.59601561,7.654776547,1.69397457,-0.157786882,0.741270445,3.734393917,-3.254585329,-2.487948064
-2.435829683,-5.59577893,-5.579484484,-11.64203577,-8.88296542,-0.922278517,7.719974958,4.597577213,26.45433932,-0.428024016,26.81405148,19.24853652,6.51008725,1.601873366,-1.710140785,-0.323245395,3.901933348,-4.428065684,-3.185419879
-2.098115494,-5.969929136,-6.314133234,-12.35052704,-8.783739984,-1.222393822,5.437920973,4.776061831,23.80509238,-2.219775461,22.49257419,15.78900456,3.915019468,0.598529852,-3.990441038,-2.515137026,3.565755069,-5.85771948,-3.808248306
-2.219956501,-6.502770726,-6.290592237,-13.12186833,-9.131520354,-1.615559637,3.784077904,4.159147917,19.71096073,-4.154578651,18.65967694,12.78234267,1.216619925,-0.478347957,-5.898295116,-4.638221977,3.182033076,-6.52704718,-3.967363404
-2.28410493,-6.385250501,-5.157017689,-13.53311693,-9.796256375,-1.600163608,3.44849635,2.718173768,16.5424057,-5.19898409,17.22445667,11.82808486,-0.182560024,-0.607267755,-6.31084443,-5.2249154,3.34566414,-5.753792778,-3.43993828
-1.739515554,-5.135730888,-3.142799824,-13.17221031,-10.44891459,-1.08277339,3.859429424,0.643418822,15.57548448,-5.176020577,18.46385813,13.32447134,0.162099568,0.596515781,-4.941647379,-3.570578319,4.238333009,-3.750826059,-2.376871417
-0.610697716,-3.119498921,-1.032874127,-12.09795259,-10.89445287,-0.493210999,3.808157877,-1.715194962,16.13361695,-4.890402529,20.87502208,16.06992101,1.481643678,2.525483828,-2.605186093,-0.246601081,5.411637067,-1.487677918,-1.276031017
0.456780341,-1.324085367,0.360879525,-10.82243734,-11.0923096,-0.398788346,2.638487106,-3.724806903,16.56334981,-5.244381664,22.34096526,18.05984229,2.475585271,3.997614371,-0.665779857,3.290726994,6.108050173,0.016060694,-0.710824872
0.744720498,-0.592797174,0.788793171,-9.845505407,-10.94407661,-0.965811995,0.904533784,-4.478856858,15.99243094,-6.205701002,21.6771459,17.90474251,2.357213317,4.125643061,-0.092194075,5.673832678,5.846446776,0.378628682,-0.996280273
0.088520094,-0.9916595,0.696316626,-9.196393753,-10.17971758,-1.752218861,-0.078203871,-3.193927871,15.18519572,-6.636285924,19.38365604,15.80486974,1.423671871,2.952217374,-0.834288225,6.42280534,4.763994145,-0.013787991,-2.025491361
-0.994672909,-1.849473405,0.778519932,-8.433957032,-8.548546256,-2.020684386,0.645411176,0.170670475,15.72979124,-5.212158428,17.11509803,13.36097869,0.738025477,1.369160846,-1.958722331,5.999698756,3.427067315,-0.482027673,-3.376504344
-1.783064147,-2.402732138,1.345059373,-7.131373491,-6.161671012,-1.307877668,2.88326902,4.593875468,18.36530629,-1.666111478,16.39053677,12.39458169,1.241919894,0.425108041,-2.381052535,5.182485873,2.300563124,-0.680398867,-4.588296015
-1.982351246,-2.449367165,2.052584442,-5.410369754,-3.614773558,0.225693051,5.501674135,8.388794418,22.03870769,2.742213828,17.57443526,13.67707631,3.036906386,0.594413338,-1.609762697,4.358348351,1.364896571,-0.834259584,-5.399685038
-1.928392204,-2.434132725,2.236131501,-4.010261512,-1.682110991,1.936507022,7.370848684,10.17312924,24.59339925,5.989029445,19.81691475,16.47269474,5.362828576,1.555503536,0.01296266,3.33207391,0.222782619,-1.424559048,-5.808244002
-2.181811889,-2.920363646,1.543053005,-3.759127307,-0.778628883,3.178688106,8.173312279,9.739676505,24.4995751,6.701550566,21.82031078,19.13235082,7.193862114,2.568627848,1.643521804,1.740660478,-1.418207291,-2.644075585,-5.963370051
-2.903895121,-3.957951133,0.310030819,-4.836571096,-0.649941503,3.710267744,8.401383831,8.141385335,22.1049769,5.099463799,22.71442245,20.2029728,7.908183279,3.067742832,2.49446544,-0.375599973,-3.347948778,-4.125408713,-6.018300554
-3.610609951,-4.939293384,-0.648350593,-6.43609401,-0.598062304,3.720550094,8.661817584,6.884548828,19.32813968,2.739455625,22.40273601,19.23427439,7.529818926,2.980889112,2.202135167,-2.402450849,-4.923350305,-5.172854685,-6.052065588
-3.558788484,-5.083651121,-0.661919919,-7.159942534,-0.093943719,3.529915732,9.024289984,6.832809568,18.09403523,1.321643752,21.30368903,16.81762729,6.482550002,2.60243907,0.852075671,-3.545290237,-5.558911391,-5.280772646,-6.076251021
-2.43729241,-4.122330733,0.281450667,-5.925452612,0.729889182,3.281739087,9.036284185,7.6620159,18.87169632,1.534174872,19.89777058,14.01317006,5.198340298,2.240641788,-1.190954749,-3.432609544,-5.205584834,-4.490839303,-6.067746907
-0.743343977,-2.579829548,1.539943398,-2.763063535,1.139049876,2.898501298,8.329780447,8.257445556,20.50155596,2.789828327,18.50504894,11.69412322,3.942206178,1.997339702,-3.432513498,-2.396000504,-4.392149508,-3.311233609,-5.978280549
0.514884,-1.404280956,2.3043564,1.057287873,0.382609156,2.285926273,7.155574115,7.682434271,21.31960563,3.91429643,17.34933485,10.23258011,2.900694426,1.827832174,-5.322152358,-1.194741448,-3.793850557,-2.311238406,-5.731415552
0.565614933,-1.261844853,2.151546661,3.678850946,-1.672121743,1.529814572,6.263308396,5.912315291,20.49762031,4.098500761,16.64359135,9.567259185,2.288243315,1.722764635,-6.358336078,-0.442545598,-3.710529249,-1.757144124,-5.24862762
-0.542504494,-2.077924474,1.24621416,3.684777661,-4.377836065,0.863203828,6.207910706,3.774576686,18.47074901,3.340389593,16.47614264,9.414119366,2.250719649,1.758391142,-6.298487689,-0.22917394,-3.905140039,-1.564479618,-4.511390613
-1.992370269,-3.167790007,0.109725974,0.876150853,-6.743286707,0.437439227,6.757597447,2.229843228,16.26732496,2.165006977,16.59784006,9.409082081,2.638289201,1.949913805,-5.359203323,-0.218521547,-3.918959967,-1.524969241,-3.60847829
-2.82230211,-3.789825848,-0.773595832,-3.632539847,-8.097631875,0.146769482,7.022218123,1.658947105,14.55177223,1.055968846,16.42626985,9.184526959,2.948961072,2.098399428,-4.178367277,-0.064551341,-3.551757963,-1.532794765,-2.708831983
-2.597550108,-3.632874501,-1.177166639,-8.007045245,-8.448445067,-0.285799114,6.251426923,1.74497984,13.32268288,0.18084257,15.42808307,8.501455241,2.639049464,1.866019742,-3.445865727,0.273843426,-3.060390132,-1.588299495,-1.960953941
-1.607654111,-2.873009438,-1.077099435,-10.6050585,-8.291024773,-1.015964668,4.595924259,1.9601342,12.42624403,-0.419717142,13.64261068,7.456024337,1.629441805,1.087262152,-3.408790055,0.596325464,-2.900720218,-1.618957207,-1.393446399
-0.501036767,-1.851195768,-0.491479919,-10.71053655,-8.101872667,-1.859352428,3.109010982,2.12709004,12.17195851,-0.524990275,11.87280978,6.589266213,0.565353807,0.047297566,-3.638330582,0.793161986,-3.259952344,-1.357568831,-0.901381732
0.267476136,-0.735764105,0.564615511,-8.744561066,-7.985291608,-2.386869177,2.927993162,2.506576282,13.24754525,0.243255742,11.27191491,6.697785639,0.511887994,-0.578997891,-3.298599505,1.07693554,-3.81567438,-0.461351519,-0.333326075
0.701541394,0.522051725,1.974420227,-5.906281813,-7.748217393,-2.289690111,4.320876104,3.359215859,15.90500314,2.014859578,12.55820596,8.357249348,2.22473104,-0.163915686,-1.76598695,1.851595343,-3.950950577,1.195570602,0.391809891
1.080239748,1.960689744,3.435472946,-3.482461847,-7.256122342,-1.699656826,6.429910763,4.46207599,19.24663672,4.300216017,15.44873216,11.45199067,5.531637739,1.371258691,0.860185976,3.317241873,-3.248032059,3.319748916,1.228685395
1.577947789,3.396860138,4.563573365,-2.207879089,-6.669704438,-1.156189418,7.946392681,5.123458174,21.49153649,6.126028939,18.77147253,15.07677879,9.325668929,3.402800209,3.756008302,5.178453469,-1.843445994,5.296046734,2.03829534
2.07379058,4.474972178,5.143763187,-2.005942663,-6.304583344,-1.20573418,8.141180992,4.766487819,21.22936771,6.697676017,21.18402995,17.93821783,12.2060886,4.956647602,5.884304141,6.749317245,-0.35708609,6.5382282,2.658850183
2.305904844,4.936678488,5.297582306,-2.215813329,-6.247820022,-1.950305901,7.375510447,3.577486316,18.66336837,6.067277573,21.95133785,19.01684349,13.29487971,5.318030849,6.620532151,7.400064831,0.526102901,6.82353783,2.948901305
2.176186041,4.838747912,5.378047978,-2.12879774,-6.129210091,-2.929683524,6.687683867,2.580619608,15.68782256,5.189561587,21.22588802,18.06520558,12.64005398,4.445436705,6.029740665,6.988334657,0.473019504,6.359221651,2.794897013
1.879984891,4.498347805,5.657293969,-1.473643762,-5.326609506,-3.454889244,6.862131203,2.959450087,14.56909733,5.231573546,19.72325647,15.6623801,10.98252043,2.905472929,4.650189037,5.932485465,-0.383194257,5.563358922,2.133978208
1.729700601,4.218036471,6.090436691,-0.533719376,-3.484771412,-3.132595567,7.812934683,5.114199302,16.22719554,6.65942921,18.17685911,12.87850721,9.178729647,1.434894678,3.050404985,4.891821963,-1.643402021,4.774478372,1.025281601
1.854440005,4.060315954,6.391743644,0.160094024,-0.912083936,-2.156892012,8.79071647,8.230463825,19.53802932,8.861147442,17.05240443,10.82903976,7.784416249,0.505086773,1.564822142,4.336180786,-2.921018371,4.127213099,-0.282197662
2.081040313,3.886462736,6.367658223,0.308981261,1.515050497,-1.138092137,9.164385935,10.7660147,22.26579612,10.64135885,16.650653,10.35036214,7.054295782,0.195129166,0.374174962,4.340127389,-3.966750341,3.642495022,-1.392948716
2.121310041,3.604014779,6.187798358,0.119837121,2.908794039,-0.622011759,9.029358581,11.52694346,22.86021078,11.19050746,17.29698046,11.81528173,7.1675658,0.366341318,-0.272199431,4.704187807,-4.61885053,3.375035606,-1.965338821
1.888214452,3.35412766,6.306862709,0.158656564,2.964430451,-0.700406398,9.088311144,10.51450309,21.61325699,10.72441866,19.24255854,14.98674835,8.288418547,0.878335558,-0.031123014,5.220892825,-4.740878607,3.435046148,-1.961408987
1.633976592,3.429912151,7.072172955,0.906886795,2.12895052,-1.020063341,9.937324297,8.891217951,20.22642451,10.26899515,22.26224468,18.91303271,10.30551862,1.618537557,1.253697458,5.823553861,-4.281316694,3.865234637,-1.734044098
1.768521637,3.993450026,8.369727522,2.385131986,1.224275741,-1.154448981,11.43199099,8.102858593,20.21593062,10.78951609,25.3656515,22.05626355,12.52335662,2.373184719,3.225115912,6.523618137,-3.400848594,4.528742207,-1.81479867
2.516394476,4.876388429,9.661518847,4.148485292,0.839617508,-1.004982293,12.72115544,8.838747023,21.57624358,12.40640933,27.07903916,22.84284103,13.75416133,2.772177948,5.0319438,7.267005363,-2.483026609,5.163884795,-2.500374052
3.719108564,5.682862283,10.41999218,5.639589883,0.96783697,-0.893007717,12.92089475,10.60379502,22.86319096,14.33730954,26.29913593,20.51898992,12.95920564,2.475902313,5.816465882,7.897273593,-1.9296323,5.583986655,-3.544188085
4.951748835,6.118156759,10.57976755,6.579809919,1.131117038,-1.276857405,11.83037524,12.16747194,22.58407188,15.56507906,23.14629056,15.80828837,10.04912498,1.496211278,5.34310708,8.266354382,-1.870294154,5.82897309,-4.238838058
5.83530588,6.230094064,10.57377524,7.056766785,0.837899628,-2.339030175,10.07395767,12.48361912,20.62404178,15.62330774,19.09604197,10.79163363,6.176322068,0.33648809,4.232814716,8.354585925,-2.050120136,6.096768631,-3.89709047
6.263018967,6.316141063,10.8822078,7.255459078,-0.020535951,-3.781245663,8.580663061,11.37336667,18.41640666,14.83728307,16.14854337,7.858017995,3.149000516,-0.270227518,3.531814968,8.247319252,-2.037734288,6.493862421,-2.405631672
6.365547851,6.570999596,11.48819515,7.124352655,-1.119228161,-4.98317667,7.885687675,9.525001602,17.68952178,13.87822461,15.55108603,8.264457192,2.276279438,0.099294505,3.890636414,7.981164727,-1.607971142,6.843345486,-0.419412472
6.299540958,6.820827577,11.76771759,6.345551181,-1.965367933,-5.393692671,7.846690877,7.921123132,18.89352918,13.09752769,16.99084048,11.25604509,3.460464888,1.157307843,4.993582807,7.437711066,-0.968603414,6.766311241,0.995966157
6.098905087,6.634591832,10.98482801,4.696233432,-2.218227813,-4.865496703,7.946834076,7.189734769,20.7054871,12.26460962,18.86041751,14.43362075,5.234922259,2.010032155,5.723603401,6.437063207,-0.613057692,6.005284184,1.047663721
5.732382202,5.748920453,9.007223369,2.486819597,-1.826715425,-3.717303816,7.825763834,7.32711178,21.07805081,10.92038003,19.39907485,15.22929197,5.760332801,1.753520564,4.973913145,4.974178791,-0.90999037,4.709715247,-0.266235347
5.272317452,4.416154267,6.602676569,0.615941228,-0.959787228,-2.520476441,7.529385725,7.876003142,18.95915055,8.974897988,17.86749836,12.54726369,4.073544985,0.137272519,2.493740857,3.357668532,-1.788232098,3.400830185,-2.181566509
4.948128449,3.310742886,4.98558843,0.065712111,0.124352417,-1.779329943,7.305163578,8.309528749,15.2326488,6.958651749,14.93387899,7.467979143,0.703784866,-2.209816963,-0.880600801,2.060898943,-2.802225276,2.605080767,-3.703116976
4.975595238,3.014159874,4.919951592,1.16137487,1.143927416,-1.696787126,7.23525854,8.318426963,12.09720674,5.670935069,12.08872025,2.546525494,-2.736632099,-4.171142716,-3.77515409,1.362966139,-3.521396004,2.455660929,-4.237269817
5.306458035,3.50406496,6.101368094,3.199566207,1.815658792,-2.119524011,7.135388558,7.888513907,11.41343722,5.53666121,10.62231919,0.204072128,-4.623981244,-4.862175726,-5.173557812,1.093913859,-3.887448816,2.615969555,-3.864628486
5.57006664,4.115051986,7.352136948,4.824960634,1.94100177,-2.645351373,6.833865349,7.250597272,13.37440549,6.258847808,10.92653708,1.301156804,-4.270553777,-4.157749074,-4.99335854,0.753257152,-4.210542931,2.604783833,-3.109154993
5.329442207,4.048434194,7.50349428,4.947293834,1.578769333,-2.821890551,6.51081674,6.807028655,16.51791242,7.087149384,12.503531,4.78222458,-2.159320781,-2.687158429,-3.98045018,-0.053516739,-4.813929578,2.235332538,-2.461423115
4.469856281,3.019659447,6.262784717,3.517768665,1.158943784,-2.360130218,6.67092465,7.026135397,18.94539134,7.460816691,14.46832141,8.488131507,0.531489731,-1.376112704,-3.106675061,-1.234256619,-5.674093889,1.760767853,-2.068599496
3.370739634,1.488296922,4.370521863,1.544121851,1.344670575,-1.28629358,7.671982415,8.231952275,19.65978281,7.44216637,16.03761674,10.46757593,2.638186275,-0.916082874,-2.984691352,-2.25564036,-6.415217573,1.577628703,-1.803283434
2.665423869,0.265798383,2.946058999,0.305177934,2.621943366,0.044875304,9.209867964,10.31573634,18.96582705,7.546814994,16.69210651,9.918074297,3.467081134,-1.504063811,-3.686670758,-2.621344714,-6.677504351,1.758242662,-1.566174219
2.753750458,-0.157471827,2.594912041,0.36948412,4.864744949,1.113657812,10.29269674,12.56765431,17.78111411,8.128905068,16.11339294,7.306258664,2.862643145,-2.907584146,-4.943059947,-2.37258412,-6.501591733,1.876127242,-1.485662551
3.475390639,0.029208777,3.027225039,1.193689549,7.233389262,1.516296603,9.855584482,13.86259551,16.63708998,8.895586206,14.19676384,3.842574993,1.09288704,-4.660116299,-6.401125089,-2.12498115,-6.323904948,1.3525676,-1.809206296
4.238507131,0.230707573,3.470090517,1.617262393,8.569991805,1.201598422,7.589645825,13.22534379,15.30493298,9.028009344,11.25255455,0.821779828,-1.222275379,-6.190609411,-7.68660844,-2.533427178,-6.531789936,0.072103404,-2.598382104
4.509414798,0.100096298,3.461448334,0.847068859,8.078296854,0.494086791,4.308769783,10.4777737,13.30033085,7.855273961,8.166383117,-0.786076983,-3.154419081,-6.883516108,-8.320162687,-3.603786662,-6.969541147,-1.282333255,-3.541576757
4.246154441,-0.03138347,3.299312769,-0.868469333,5.821947504,-0.133570034,1.506665351,6.512848752,10.68070563,5.526466503,6.18560632,-0.467040366,-3.680969042,-6.211549563,-7.751276371,-4.472505483,-6.893759003,-1.544539823,-4.099171225
3.899942997,0.636742566,3.753524901,-2.415417837,2.676085283,-0.385571018,0.402992511,2.926681828,8.312830434,3.092560977,6.288511482,1.792879497,-2.157483045,-4.008673945,-5.659258139,-3.933115222,-5.51202888,0.134548264,-3.889664548
3.98803116,2.681352614,5.319729215,-2.683156039,-0.235669002,-0.321163758,1.19076399,1.171636036,7.325711446,1.877794021,8.522678996,5.445233591,1.186039112,-0.728388372,-2.343087453,-1.361062435,-2.703312197,3.604687602,-2.994630216
4.622795182,5.874374219,7.702418618,-1.412815651,-2.205475391,-0.24720463,3.026018324,1.750657341,8.235912168,2.595753131,11.84605784,9.413012137,5.149142137,2.588213201,1.180893072,2.687980446,0.70167684,7.703119196,-1.917546269
5.417716171,9.21934689,9.995595939,0.648900639,-3.235843697,-0.418926376,4.700968009,3.971793992,10.5265602,4.872885648,14.68074444,12.40344681,8.095645106,4.755674727,3.59417782,6.707865856,3.375352922,10.93579822,-1.225656429
5.843863879,11.57008105,11.38981239,2.378934475,-3.80182768,-0.807709727,5.430658324,6.41046302,13.03917416,7.523806001,15.83967558,13.48202365,8.873106975,5.083783921,4.006096167,9.141815766,4.361071416,12.31670155,-1.171537644
5.695259601,12.28902813,11.75509499,3.144417886,-4.33318808,-1.138914331,5.176717217,7.759235121,14.8196804,9.353714186,15.18059839,12.59934576,7.508989564,3.777314066,2.490627064,9.25300172,3.660117545,11.7145699,-1.596560131
5.221817166,11.39285421,11.56623015,3.200218478,-4.852972261,-1.16241435,4.387949282,7.519977216,15.70346805,9.899703308,13.55150104,10.67876916,5.170849663,1.782245689,0.018444904,7.312299684,2.063401106,9.49665367,-2.164895392
4.802941447,9.1287754,11.24642661,3.333607811,-5.030732058,-0.902432467,3.520412198,6.150771384,16.21481337,9.621012666,12.1402988,9.123382182,3.397075726,0.166679995,-2.177832166,4.048230119,0.393381186,5.877654045,-2.695850128
4.47767906,5.469920449,10.55580116,4.100073789,-4.54333643,-0.643042252,2.790907717,4.668716033,16.97778131,9.4815542,11.76057446,9.010943313,3.142395546,-0.517928667,-3.334462637,-0.065511756,-1.170963338,0.637469054,-3.299869341
3.804234694,0.099488897,8.637177663,5.299913659,-3.400998086,-0.646367927,2.289168008,4.03133162,18.20446061,10.27324573,12.55603158,10.48416241,4.301242153,-0.441997101,-3.461127191,-5.003743462,-3.092361007,-6.471401343,-4.220141505
2.232078095,-7.021853371,4.750811596,6.0993052,-1.971929014,-0.861074391,2.183701738,4.67164155,19.6442692,12.12430061,14.17822622,12.71374434,5.979667375,-0.171421556,-3.063681191,-10.69970487,-5.811626403,-14.96030539,-5.547028644
-0.31466742,-15.0183556,-0.908938354,5.645995984,-0.727252335,-0.913742914,2.690139317,6.374060701,20.88452557,14.42631192,16.10348887,14.41728228,7.214757367,-0.130394202,-2.594590642,-16.38539494,-9.043748794,-23.21306954,-7.068525911
-3.17841226,-22.0743751,-7.045826877,3.650856573,0.042481591,-0.432831898,3.775001177,8.442696212,21.59526262,16.12405215,17.75414599,14.56720861,7.556697825,-0.305121384,-2.111982514,-20.50039803,-11.71584777,-28.96541938,-8.377213553
-5.321001502,-26.2421295,-11.95600928,0.499606305,0.308809286,0.561089836,4.916727534,10.00195149,21.47976425,16.15965759,18.4304243,12.86306876,7.135171953,-0.386710233,-1.385651365,-21.4474423,-12.6739776,-30.46290221,-9.122284545
-6.045258024,-26.57876672,-14.57502313,-3.102431275,0.176141154,1.563533385,5.268026994,10.30177938,20.10777284,13.88503162,17.3585549,9.770595447,6.30754718,-0.153453495,-0.27459194,-18.70745903,-11.59326945,-27.51700238,-9.189845503
-5.498476703,-23.75681797,-15.06209798,-6.574759521,-0.272060342,1.925142016,4.208279532,8.972307471,17.00267461,9.337467242,14.07822056,6.221842673,5.301880329,0.29385657,1.011366704,-13.42389161,-9.309047598,-21.68721446,-8.694049046
-4.531231095,-19.64298169,-14.48196431,-9.621437124,-0.979787812,1.374262895,1.869580159,6.187869755,12.09287208,3.308305635,8.980378783,3.207531593,4.172070993,0.652933777,1.998418006,-7.90330189,-7.250905772,-15.42937315,-7.845910945
-4.023026464,-16.12716078,-13.88083451,-12.06712844,-1.797917022,0.281995906,-0.835802619,2.667265358,6.169724906,-2.859937982,3.479670724,1.436715048,3.011882103,0.748441608,2.271667788,-4.306095644,-6.415958342,-10.78531733,-6.849727337
-4.236347849,-14.05782336,-13.52567019,-13.65514871,-2.421529173,-0.587909768,-2.777475231,-0.55622366,0.817899853,-7.744240347,-0.549138684,1.12200223,2.10459128,0.721270055,1.720919259,-3.44095889,-6.70986551,-8.4753663,-5.893653202
-4.726601721,-13.02619461,-12.89543941,-14.10106503,-2.531565166,-0.675363842,-3.351320531,-2.558246394,-2.350979515,-10.41923546,-1.860970815,1.906690419,1.772116714,0.877700219,0.513078725,-4.500103285,-7.172831241,-7.898596241,-5.163719036
-4.846213368,-12.04610766,-11.35444784,-13.39483393,-2.072432083,-0.087085961,-2.828164357,-2.956976953,-2.699955331,-10.84785446,-0.710051067,2.981233622,2.033480481,1.342655206,-1.112291487,-5.845762834,-6.86164291,-7.866129653,-4.782672018
-4.368276478,-10.48789147,-8.874227042,-12.03894808,-1.41473395,0.468918704,-2.047016281,-2.110848329,-1.025117642,-9.831368265,1.225410452,3.425188993,2.435624384,1.871645761,-2.964025603,-6.181254362,-5.622903723,-7.434164643,-4.692252702
-3.670310569,-8.505399146,-6.171621615,-10.90722302,-1.195799525,0.247272237,-1.729367093,-0.937620719,0.96480128,-8.51645242,1.935833772,2.683128882,2.312204348,2.041588492,-4.805905899,-5.23281263,-4.122910323,-6.281856303,-4.623493093
-3.331339293,-6.704177653,-4.166584346,-10.73063503,-1.889614721,-0.919821626,-1.981635723,-0.432873496,1.816356187,-7.755306202,0.463538926,0.920249143,1.333673506,1.676588379,-6.199669167,-3.555814146,-3.167128141,-4.549472451,-4.267744646
-3.531680347,-5.463115496,-3.251163149,-11.57627695,-3.413984741,-2.457732315,-2.357063403,-1.153899994,1.268623462,-7.723152822,-2.435442721,-1.015924063,-0.10702455,1.111042015,-6.56463113,-1.809502329,-2.953608482,-2.476975771,-3.563351378
-3.822636987,-4.567254503,-2.999252717,-12.74887046,-5.10063729,-3.47386746,-2.356645602,-2.956346268,0.243575722,-8.010686044,-4.86130971,-2.085718481,-1.060340998,1.000617819,-5.546350635,-0.200791397,-2.929470823,-0.227452105,-2.836757605
-3.494679799,-3.459398152,-2.543250302,-13.23499429,-6.094645766,-3.432380497,-1.900537258,-5.114413121,-0.067290616,-8.063701969,-5.161852321,-1.729200417,-0.693418459,1.785690812,-3.438832134,1.473222549,-2.354439615,2.019846161,-2.593466674
-2.22430083,-1.825305562,-1.273635717,-12.38221307,-5.91514991,-2.543710433,-1.385343348,-6.733935863,0.746456785,-7.611933867,-3.12018235,-0.271913411,1.011842153,3.245369094,-1.242722486,3.353442157,-1.03662719,3.934641783,-3.05155416
-0.416502787,0.064577156,0.725620659,-10.31971359,-4.774695586,-1.577316226,-1.347189823,-7.223582426,1.971965775,-6.791684327,-0.090423298,1.23348495,3.084195316,4.544801392,-0.170879528,5.159608747,0.437523643,5.113312422,-3.801539127
1.079358165,1.580169009,2.826594035,-7.8361657,-3.432692629,-1.27651107,-2.086317477,-6.590862172,2.365628289,-5.95030755,1.953107202,1.635594169,4.082189014,4.785146355,-0.877362881,6.322615202,1.188488804,5.365534546,-3.962917396
1.649152954,2.305352636,4.401757923,-5.850694005,-2.705135012,-1.854913983,-3.579218448,-5.441767635,1.132469189,-5.370655483,1.695111425,0.353893282,2.95827891,3.644595265,-2.982054918,6.47963416,0.804105116,4.940929735,-2.830566283
1.404876161,2.41905145,5.270978677,-4.89320599,-2.990296148,-2.946033466,-5.672664492,-4.701859578,-1.526041444,-5.16244008,-0.830325926,-2.349595174,-0.324475943,1.612559005,-5.295971853,5.841841557,-0.30942607,4.429476995,-0.546651824
1.06439779,2.527534845,5.703134049,-4.939187486,-4.121022512,-3.977095,-8.266412394,-5.181341605,-4.680971479,-5.355932354,-4.510866714,-5.619506508,-4.805536129,-0.356358185,-6.620794173,5.060280788,-1.296507689,4.351639592,1.792025517
1.329275981,3.101725975,6.047289395,-5.619076076,-5.581053857,-4.601986689,-11.23487826,-7.161863302,-7.426630419,-6.021028376,-8.009379809,-8.524011569,-9.085105598,-1.48319352,-6.533273105,4.687707044,-1.602289828,4.754901567,2.80081149
2.300445906,4.034824633,6.376064228,-6.542121464,-6.860908831,-4.83518783,-14.16321713,-10.18909906,-9.414509433,-7.227885403,-10.4778832,-10.45434147,-12.00239953,-1.60700799,-5.570202215,4.71709008,-1.426862022,5.165553739,1.830001499
3.424915626,4.721728165,6.459393535,-7.463518389,-7.680109497,-4.842552521,-16.24340558,-13.19867466,-10.75881275,-8.862604544,-11.69343619,-11.21124008,-13.03332613,-1.137324497,-4.712144099,4.61674614,-1.479895706,4.962559551,-0.434842746
3.993276494,4.585327041,6.046194638,-8.243260048,-7.972817127,-4.662485802,-16.5949695,-14.97005073,-11.53531014,-10.50776095,-11.75779554,-10.88567302,-12.30629883,-0.639995434,-4.622181808,3.836277324,-2.266384433,3.88458257,-2.325042177
3.733309355,3.57503571,5.148907152,-8.756456755,-7.749280351,-4.164136543,-14.88219935,-14.72624845,-11.47118358,-11.58334234,-10.83550141,-9.768019636,-10.4087736,-0.442726143,-5.259023527,2.335113042,-3.55658411,2.262466482,-2.313383834
2.985251073,2.199486517,4.054553033,-8.917318034,-7.018087925,-3.283143364,-11.75013297,-12.57300574,-10.1975868,-11.71090173,-9.224434087,-8.372286705,-8.184787393,-0.551153887,-6.122700985,0.667124222,-4.526058396,0.791896185,-0.110215723
2.337539835,1.084189528,3.07325035,-8.797051692,-5.844194686,-2.273549619,-8.643774879,-9.50546104,-7.834971406,-11.02349204,-7.588185859,-7.422230428,-6.553352178,-0.837689782,-6.831780434,-0.449589827,-4.448383978,0.033372569,3.089091849
2.083938423,0.468379538,2.291561273,-8.660425674,-4.451227038,-1.670014716,-7.021181248,-6.927279395,-5.285115499,-10.13372907,-6.917062978,-7.596108391,-6.247461935,-1.226573386,-7.466652179,-0.69948638,-3.326409339,0.034792977,5.40190507
2.002025372,0.090978577,1.58009407,-8.795784003,-3.21739856,-1.918669836,-7.466094833,-5.91748999,-3.80942936,-9.729907142,-8.004611352,-9.060588118,-7.45530045,-1.664608449,-8.368206873,-0.389456325,-1.901357985,0.352443497,5.513720101
1.636989759,-0.45684953,0.840666627,-9.232731449,-2.513595312,-2.968097118,-9.329561821,-6.657242134,-4.120573819,-10.08528793,-10.74003515,-11.13393786,-9.561773726,-1.948771323,-9.612993314,-0.155680155,-1.031292959,0.417843659,3.477383458
0.80317413,-1.264792955,0.231105313,-9.608530518,-2.490518365,-4.200209444,-11.16363364,-8.357972964,-5.722498884,-10.86071973,-13.83453127,-12.47165935,-11.28455887,-1.68057552,-10.70551045,-0.433581308,-0.986176141,-0.056748785,0.522453599
-0.17907808,-1.967377861,0.117517704,-9.367305681,-2.98864077,-4.82328645,-11.64116979,-9.740455169,-7.120227147,-11.35957401,-15.37892773,-11.82961773,-11.29993815,-0.516499049,-10.83974623,-1.141715988,-1.272610497,-0.926420295,-1.893895828
-0.740287897,-2.063510647,0.766308121,-8.192187919,-3.656615202,-4.455779626,-10.33095005,-9.78188213,-6.840735095,-11.03463366,-13.99838001,-8.960507197,-9.064842227,1.435145815,-9.551320897,-1.804915227,-1.125157007,-1.770442351,-3.029524244
-0.578577871,-1.385946825,2.052337546,-6.32905241,-4.196790286,-3.44065335,-7.849128364,-8.289211358,-4.520476474,-9.850272858,-9.835586587,-4.970462423,-5.287815033,3.446618937,-7.190524529,-1.94723815,-0.212693522,-2.178236334,-3.126345048
0.043566563,-0.274542359,3.471239844,-4.500209262,-4.553562459,-2.619882045,-5.379064407,-5.970240042,-1.210387947,-8.233111178,-4.620822005,-1.763111269,-1.647700523,4.491529139,-4.761095164,-1.386290518,1.069284299,-1.941319502,-2.935855733
0.506969142,0.716139703,4.482293841,-3.425807079,-4.905423238,-2.720022661,-3.956271385,-3.980182617,1.365608069,-6.685261383,-0.697796877,-0.856688357,0.145407037,3.91313447,-3.206675757,-0.216213523,1.966223994,-1.071442773,-3.005658914
0.37416117,1.308494921,4.907286891,-3.309215137,-5.473512525,-3.808086648,-3.974824771,-3.22597635,2.052501178,-5.396868649,0.380153769,-2.373771647,-0.635158817,1.954427818,-2.71977765,1.403517705,2.044330507,0.270914404,-3.326870563
-0.21970604,1.734980286,5.045108407,-3.70100705,-6.295136891,-5.222398865,-5.119990522,-3.835377991,1.074812088,-4.166978211,-1.247305401,-4.939979675,-3.317288633,-0.301199235,-2.656023425,3.364669502,1.563267573,1.822864991,-3.541353068
-0.67641521,2.485900701,5.396328694,-3.864730689,-7.130272759,-6.016774569,-6.63125169,-5.08736785,-0.177893447,-2.665809253,-3.929768275,-6.594915441,-6.292246237,-1.603543972,-2.137228533,5.490267221,1.209122945,3.226729431,-3.406797712
-0.454752127,3.789899937,6.223285521,-3.360181128,-7.569471125,-5.578051595,-7.677421486,-5.834870469,-0.205266976,-0.793164401,-5.612762919,-6.083623049,-8.031445391,-1.361964137,-0.843638195,7.339640742,1.435837169,4.082180958,-3.052301819
0.452999725,5.299176387,7.310480065,-2.379400963,-7.274241136,-3.97933109,-7.690069799,-5.181643238,1.502256279,1.164950136,-5.111057128,-3.625208511,-7.973753474,-0.020748786,0.668618312,8.238451069,2.015277655,4.098275824,-2.824257936
1.503978442,6.281908207,8.119445758,-1.573078006,-6.1992486,-1.864139918,-6.59642011,-3.038213196,4.097415683,2.687387718,-2.742344892,-0.656092259,-6.73161665,1.288196505,1.389347411,7.64349759,2.207040791,3.271685809,-2.929717088
2.059187348,6.179613643,8.203731998,-1.521421487,-4.660381636,-0.007916434,-4.898750499,-0.239792454,5.95618166,3.332300905,0.002444955,1.197951469,-5.564594677,1.541312943,0.657391239,5.597730419,1.402459022,1.930812891,-3.247214756
1.912030521,5.061561456,7.5447134,-2.284001752,-3.201413126,1.105600741,-3.511124801,1.864944752,5.745765349,2.973738831,1.442408192,1.139832419,-5.549347329,0.471707828,-1.327200377,2.859104317,-0.327826871,0.555595138,-3.47156606
1.436955002,3.588985253,6.551253717,-3.377473186,-2.320913305,1.439279995,-3.323678066,2.156382834,3.241494194,1.827878299,0.680046386,-0.484091381,-7.000409379,-1.376094159,-3.696521772,0.498130527,-2.269603768,-0.530598784,-3.418778959
1.242336071,2.516051761,5.748982507,-4.163437349,-2.199675774,1.276811283,-4.658042166,0.414877167,-0.595925269,0.31978539,-1.991712823,-2.674657558,-9.430861851,-3.148726849,-5.626513779,-0.797992814,-3.655648633,-1.366488028,-3.178431286
1.640218083,2.140307854,5.421617707,-4.300419749,-2.582925181,0.986856129,-6.954520922,-2.478107929,-4.238515538,-1.072021641,-5.384653169,-4.577770328,-11.94055459,-4.295751202,-6.950947907,-1.187482002,-4.293850012,-2.282930016,-2.982397414
2.390529664,2.144402745,5.471933884,-3.896884036,-2.905851501,0.849051816,-8.979625414,-4.964417156,-6.443387825,-1.916680485,-8.12841423,-5.944276415,-13.69159232,-4.821922796,-8.1651132,-1.516553586,-4.683525282,-3.60294094,-2.958310925
2.924536024,1.931972907,5.56840983,-3.289727954,-2.621252652,0.989888136,-9.516531159,-5.649806494,-6.81905224,-1.908003511,-9.344026538,-6.977982671,-14.19571773,-5.062285158,-9.841245797,-2.63791222,-5.519441696,-5.350683606,-3.043141195
2.836516787,1.155911386,5.425097721,-2.696470266,-1.55408765,1.375696552,-8.120928738,-4.08011293,-5.842872344,-0.968531465,-8.936016308,-7.834526599,-13.36685005,-5.262699462,-11.97882533,-4.726105425,-7.016266728,-7.202291989,-3.140935403
2.218778732,0.007473948,5.000653904,-2.06548638,-0.058137413,1.81834485,-5.415392314,-0.984206524,-4.41754383,0.654135769,-7.434858741,-8.283757543,-11.45831994,-5.362748694,-13.85704217,-7.119148781,-8.639823397,-8.704883674,-3.323306362
1.574404359,-0.934379246,4.511959008,-1.228618427,1.155336695,2.019264141,-2.693415388,2.169838913,-3.284257023,2.415943612,-5.570734246,-7.837497918,-8.991803849,-5.140598866,-14.51984554,-8.794932624,-9.479206205,-9.564279066,-3.800108141
1.413854993,-1.126224558,4.308997652,-0.163882451,1.440643945,1.698258172,-1.104637664,4.0299804,-2.633004742,3.704728288,-3.86190435,-6.196241658,-6.665856409,-4.529554273,-13.48867574,-9.090827072,-8.948234991,-9.758299877,-4.627396725
1.892320626,-0.401464724,4.718547579,0.918080118,0.62896364,0.779532532,-0.997752888,4.094731851,-2.102023001,4.180314573,-2.435224858,-3.584991542,-5.168020921,-3.770490101,-11.11657969,-8.107008833,-7.235964578,-9.408096532,-5.440945434
2.770146602,1.000793325,5.919560145,1.760172633,-0.856335175,-0.488574026,-1.854739656,2.889991352,-1.131006436,3.998528151,-1.124848499,-0.661114603,-4.889262166,-3.238038421,-8.308637052,-6.521138228,-5.152441157,-8.570416352,-5.563319072
3.673202053,2.662693088,7.8531122,2.327723613,-2.27609345,-1.605200016,-2.779552899,1.531778792,0.568955495,3.72507555,0.277156758,1.936162759,-5.680477997,-3.096949564,-5.859257585,-5.024232684,-3.526409481,-7.182519872,-4.518547749
4.382096538,4.231565399,10.1745948,2.8676245,-3.060185287,-2.0781324,-3.1016257,1.01324916,2.741925535,3.958277117,1.819237648,4.011884272,-6.845476523,-3.113917536,-3.953031982,-3.858466641,-2.663729059,-5.231000425,-2.561353183
4.90089358,5.502000838,12.30415986,3.655697287,-3.156001479,-1.714151273,-2.645508349,1.688271996,4.711788741,4.90888852,3.373968146,5.860078207,-7.449937788,-2.819656913,-2.210467851,-2.794645502,-2.283242681,-2.974874652,-0.704011634
5.299261586,6.359676206,13.62968823,4.644375038,-2.988508743,-0.732294669,-1.575219467,3.225129517,5.842698051,6.235462064,4.785469828,7.898640579,-6.81126309,-1.906722824,-0.194099416,-1.488788986,-1.917257793,-0.964370142,-0.081834672
5.540948037,6.738595331,13.81479098,5.361936141,-3.070227882,0.384097704,-0.099342391,4.950076277,6.014019571,7.252447994,6.025379644,10.20852052,-4.886715373,-0.53532831,2.07769265,0.138760276,-1.382282427,0.24001365,-1.075274653
5.501164079,6.6807113,13.03360347,5.225523796,-3.567427583,1.18452628,1.620997706,6.267106412,5.735195564,7.357787366,7.199156423,12.36197963,-2.319733292,0.713348128,4.039209205,1.817128208,-0.910844493,0.461795975,-2.897330982
5.159860395,6.421435146,11.93366822,4.057396247,-4.160593173,1.479852648,3.307855834,6.878349319,5.762659336,6.382539635,8.381585697,13.67775776,-0.113651295,1.210706626,4.969820701,3.147340524,-0.870335262,0.085280775,-4.057087817
4.756619661,6.347063017,11.28490321,2.365622248,-4.302590341,1.356888977,4.418200104,6.757940188,6.467210086,4.650384195,9.426819336,13.6936946,0.870266728,0.695145586,4.538695171,3.884427188,-1.364125981,-0.174398344,-3.422068278
4.707054102,6.77599075,11.51087786,1.091937603,-3.662569635,1.016277225,4.307508096,6.029389337,7.439282453,2.759281176,9.946040444,12.48517518,0.303062663,-0.580409923,3.068609215,4.028690949,-2.091181154,0.229664446,-1.085715649
5.302110964,7.70639255,12.42167521,0.952828576,-2.401345847,0.601801482,2.683022149,4.903263509,7.687528786,1.2693585,9.518439029,10.59822927,-1.526290655,-2.054142927,1.331428475,3.701960382,-2.583382157,1.28336174,1.64573665
6.432789329,8.753026847,13.3491921,1.861348187,-1.067501874,0.160580752,-0.027702482,3.683899863,6.342540646,0.481296699,7.99647784,8.676791893,-3.925597629,-3.229224547,0.057086308,2.997236795,-2.593302284,2.437042642,3.159830521
7.591936953,9.366728845,13.59684738,2.901739665,-0.210471765,-0.273818977,-2.788025418,2.729037871,3.356908989,0.365058504,5.663602226,7.087577208,-6.14863769,-3.928445801,-0.467742439,1.984078909,-2.28019364,3.035778645,2.653740558
8.184093756,9.194396371,12.88179903,2.923171487,-0.023182185,-0.603270753,-4.561668835,2.284581518,-0.350225709,0.593907043,3.104771157,5.815803398,-7.678659933,-4.271365605,-0.444603375,0.851531529,-2.036102568,2.818308822,0.625648478
7.916239795,8.307840431,11.46182241,1.336156443,-0.280579684,-0.700588262,-4.984288433,2.281863105,-3.451790873,0.641228547,0.881856005,4.666716988,-8.332116505,-4.448781704,-0.277667822,-0.007320313,-2.118837343,2.097047677,-1.578427307
6.973780744,7.130856953,9.891918415,-1.474820682,-0.583765025,-0.534963727,-4.552759408,2.298876237,-5.073323418,-0.042832618,-0.732447721,3.565781212,-8.19518401,-4.510504466,-0.214401141,-0.130264149,-2.421044906,1.494482027,-2.74169654
5.864350867,6.14100835,8.638501836,-4.421402573,-0.677395545,-0.253926001,-4.158123837,1.805755532,-5.305420253,-1.761074882,-1.764789664,2.69363416,-7.487210668,-4.333595321,-0.176842083,0.719539299,-2.570134975,1.4692103,-2.50026107
5.077427329,5.597775522,7.860052647,-6.441656074,-0.580510831,-0.11389565,-4.335307332,0.578230854,-4.986227928,-4.299070339,-2.327480103,2.349622073,-6.445889936,-3.765334421,0.136435152,2.348373646,-2.254983388,2.021492409,-1.327855834
4.832059481,5.499880019,7.486770932,-7.12651526,-0.463292334,-0.29262302,-4.846926516,-1.025201475,-4.950499408,-6.857844493,-2.40935437,2.670740123,-5.272553548,-2.79355035,1.004405918,4.224754831,-1.482066989,2.799922603,0.056153537
5.074756927,5.754317591,7.462783102,-6.78584744,-0.430140337,-0.739482693,-4.934309757,-2.178297562,-5.359965044,-8.3473494,-1.880109947,3.453755683,-4.117003627,-1.594657879,2.494910765,5.828448528,-0.539967726,3.487222515,1.261681048
5.66043285,6.354029641,7.889263905,-5.96151355,-0.429594092,-1.202443407,-3.998365725,-2.072578859,-5.644584369,-7.964940962,-0.696951851,4.246669775,-3.063665059,-0.428339634,4.449132364,6.979236241,0.282066141,4.115371721,2.319120319
6.510738402,7.377488795,8.925436756,-4.837841527,-0.362880528,-1.421897634,-2.11689277,-0.457511079,-5.070476697,-5.720691624,0.909934984,4.659364758,-2.110097556,0.524018333,6.605209837,7.873089126,0.95956844,5.034146053,3.335143735
7.607371571,8.817217108,10.54766708,-3.066611763,-0.256060198,-1.334354166,0.026468003,2.147652984,-3.438526834,-2.520592273,2.490758889,4.660197265,-1.171189452,1.244424846,8.734537502,8.804347396,1.740708607,6.561279857,4.162629664
8.863929062,10.42618545,12.40995233,-0.165311968,-0.2944011,-1.117846203,1.694692002,4.728873968,-1.32916179,0.320495399,3.655221223,4.617019147,-0.149943796,1.82644736,10.68473288,9.828231271,2.885667015,8.616328966,4.461366864
10.04453666,11.76687692,13.96501994,3.842468027,-0.653957393,-1.046626651,2.615091213,6.354241521,0.297982208,1.854671496,4.325881024,5.020793618,0.933686835,2.337441079,12.32047973,10.66760821,4.362679332,10.65700146,4.082902427
10.84698248,12.46072629,14.77440991,8.09993883,-1.274412924,-1.282461574,3.023974996,6.670785187,0.809240154,2.044695984,4.711676615,6.072189196,1.840729883,2.709458967,13.44439862,10.94363534,5.766661552,11.9891606,3.350957838
11.09918015,12.44107102,14.76720084,11.23389494,-1.798839556,-1.771632724,3.273716867,6.025789749,0.339067692,1.697308154,5.008581991,7.438195909,2.154634338,2.748995534,13.79901291,10.51431174,6.543906365,12.21926909,2.8902221
10.89596918,11.99292318,14.24718434,12.14517416,-1.77595831,-2.310506709,3.448682526,5.193687382,-0.35633063,1.843898748,5.122000592,8.391209272,1.513217546,2.268047771,13.1873798,9.607490266,6.358376909,11.5060039,3.106730998
10.54383869,11.53786715,13.65462845,10.71653319,-0.99012632,-2.694211794,3.391108544,4.928329698,-0.479469965,3.021508368,4.725977056,8.275703491,-0.074174409,1.249970855,11.64814353,8.624736726,5.323820053,10.4273788,3.801628536
10.34477586,11.3341842,13.27644426,7.912161505,0.339767438,-2.810774887,3.084030494,5.60134139,0.257957289,4.953285808,3.665774083,6.989952771,-2.056026815,-0.070099949,9.551336138,7.795819617,3.932046189,9.572995953,4.320953216
10.38620673,11.32332388,13.1118366,5.171471285,1.655074243,-2.6256537,2.927202424,7.058004911,1.491604043,6.799315998,2.335563085,5.119030481,-3.518441769,-1.286264266,7.501789998,7.002209769,2.736627458,9.164851751,4.153597484
10.49290034,11.21829923,12.94767557,3.506083467,2.374318233,-2.124821057,3.501757791,8.677873319,2.487350323,7.722888779,1.593112389,3.57586829,-3.702625775,-2.038643737,6.053393726,5.933754906,2.022486836,8.965843455,3.4401083
10.35779896,10.72864379,12.53003495,2.918547211,2.192768326,-1.318188346,4.932231028,9.583206307,2.572521635,7.334482584,2.137130588,2.965494216,-2.566067778,-2.238074097,5.38569224,4.435738365,1.685107518,8.507321791,2.888346832
9.732474731,9.72968072,11.68112858,2.525836061,1.164239568,-0.314918677,6.443199106,8.965301943,1.424202631,5.753136339,3.794374952,3.125063483,-0.968649495,-2.137806655,5.166664662,2.724416149,1.38045865,7.441981624,3.114748378
8.539435984,8.272299235,10.31260507,1.270523949,-0.435802957,0.63315146,6.666401422,6.482576264,-0.868295205,3.37087538,5.367573277,3.209221329,-0.246712836,-2.168756089,4.741995589,1.262807096,0.818002679,5.768187099,3.981721296
6.86475549,6.48910046,8.40459219,-1.29653266,-2.293738453,1.230047802,4.639344495,2.579459647,-3.866215789,0.606775011,5.329552441,2.311285905,-1.355086054,-2.61459406,3.575840615,0.39376671,-0.01485299,3.796656825,4.563160073
4.894410557,4.525108625,6.032221942,-4.698148778,-4.121583116,1.353950626,0.755961976,-1.514107859,-6.876108393,-2.15789448,2.952466567,0.196186721,-4.124324336,-3.343659284,1.661324003,0.048905618,-0.844731122,1.92426674,3.846479727
2.872950887,2.549508848,3.426504717,-7.860102058,-5.598115598,1.22071665,-3.181956543,-4.255475254,-9.110462955,-4.527723636,-0.99040503,-2.408618131,-7.193933115,-3.819216015,-0.409245433,-0.209764056,-1.314904267,0.396651929,1.613572308
1.092007241,0.782916527,0.970196534,-9.813877275,-6.334934972,1.307720379,-5.025215584,-4.592202298,-9.987327574,-6.128301565,-4.58568371,-4.23081988,-8.768529561,-3.439211875,-1.813003167,-0.847424701,-1.254460533,-0.784607392,-1.264990261
-0.148982982,-0.556289192,-0.939504919,-10.26578455,-5.998093617,2.029616371,-3.752117884,-2.639743007,-9.494069698,-6.811030054,-6.045314603,-4.32549338,-7.759371221,-2.007262607,-2.077341245,-2.002595053,-0.829724072,-1.778177542,-3.422336536
-0.646976067,-1.383864651,-2.097107812,-9.662376704,-4.542347287,3.386272609,-0.243572311,0.267137195,-8.346868609,-6.857435174,-4.971749716,-2.779611036,-4.546072781,0.006801662,-1.452138731,-3.410547929,-0.469885814,-2.730863459,-4.017150342
-0.413761218,-1.834877734,-2.598369391,-8.764097301,-2.35503758,4.8756699,3.284358704,2.30342867,-7.690226473,-6.907137537,-2.648103185,-0.709784714,-0.799983529,1.657732647,-0.767096366,-4.642327093,-0.603452909,-3.646024982,-3.340467137
0.298715092,-2.17680388,-2.736589837,-8.077321422,-0.13003736,5.788332706,4.813328436,2.273140957,-8.388010915,-7.526144121,-1.089694279,0.484772636,1.557698197,2.099070989,-0.838905815,-5.427258736,-1.368965291,-4.373611703,-2.499844174
1.123346146,-2.574436419,-2.745819948,-7.555042487,1.497351987,5.697858706,3.891403422,0.391646652,-10.34336538,-8.680393094,-1.546841461,0.097076079,1.577187384,1.169279764,-1.849532864,-5.776048992,-2.492335949,-4.713531227,-2.457010393
1.784928626,-2.896055277,-2.599726894,-6.741746289,2.304306164,4.783122094,1.837520081,-1.827188552,-12.38819408,-9.558641383,-3.5829746,-1.386021349,-0.144438012,-0.437637243,-3.169051351,-5.824576085,-3.42638458,-4.552342926,-3.246359553
2.236736423,-2.75816136,-2.046658304,-5.203968565,2.549008821,3.724763791,0.687691137,-2.539472105,-12.93436247,-8.989231806,-5.409899306,-2.617669281,-1.910593714,-1.578209386,-3.776961972,-5.580199871,-3.676604052,-3.936963776,-4.035006574
2.620685016,-1.817301092,-0.862803306,-2.903566975,2.692880719,3.239895498,1.734243612,-0.754464471,-11.00127696,-6.236393366,-5.194055153,-2.312276105,-2.0615271,-1.390592534,-2.977789784,-4.832624683,-3.101815664,-3.032786068,-3.942707713
3.092429387,-0.086076835,0.893820333,-0.252866159,2.996327766,3.598331844,4.744670922,3.05954622,-6.895277719,-1.615635447,-2.328216758,-0.089241477,-0.012553615,0.151438121,-0.872749743,-3.324366416,-1.9817876,-1.992228135,-2.873729905
3.669769958,2.005483791,2.860298752,2.149215641,3.316139106,4.473591834,8.329570296,7.321329345,-2.030789683,3.554502283,2.248058908,3.336417291,3.471313224,2.248719093,1.762439017,-1.024620969,-0.800440775,-0.828198237,-1.611651341
4.238152516,3.885941218,4.611441585,3.873303794,3.268390506,5.216624655,11.01529412,10.34092122,1.982245428,7.675053368,6.808353206,6.682666812,6.855680392,3.83205293,4.074193612,1.749914506,0.099136679,0.601653144,-1.094459617
4.697618896,5.244740591,5.962120651,4.849170386,2.616068204,5.31998621,12.12155952,11.26969502,4.305885367,9.771161705,9.990013842,8.895229427,8.786498451,4.252056003,5.710317827,4.483560557,0.729263265,2.459874279,-1.529922177
5.097478833,6.219638025,7.057286726,5.291554477,1.550689888,4.722450149,11.86049402,10.40294497,5.197640805,9.952467041,11.44815472,9.624962663,8.758329755,3.615961938,6.920821206,6.750257795,1.376847929,4.715421022,-2.166120072
5.610161968,7.195127347,8.156525511,5.471326048,0.621998968,3.766768951,10.80371749,8.757861638,5.520311265,9.143136285,11.64754749,9.129759381,7.160529167,2.574585311,8.128937987,8.391446283,2.292848864,7.005518488,-1.953193253
6.346350665,8.373045948,9.293976717,5.528012416,0.357910815,2.908936568,9.339906547,7.337216871,5.90512582,8.332532833,11.16557782,7.822446057,4.844539639,1.783378359,9.368034885,9.444518011,3.407519967,8.707024528,-0.527009013
7.173981689,9.489086833,10.11999492,5.439153437,0.868272465,2.441011632,7.593070483,6.598133991,6.255468686,7.910958388,10.19684608,5.917249303,2.623091434,1.478021569,10.08957397,9.919792844,4.316214956,9.219987111,1.369548619
7.722245117,9.940813898,10.08814486,5.108440315,1.737164155,2.41461655,5.716336258,6.371183296,5.927161315,7.526069936,8.628654014,3.447904668,1.008266708,1.459622657,9.527896697,9.662541854,4.56469856,8.305471525,2.444252598
7.601698802,9.243653485,8.856199469,4.450797288,2.28047818,2.739868018,4.089799424,6.112948189,4.333371461,6.46990481,6.457537543,0.540547043,0.194435768,1.420205228,7.33073616,8.449291081,4.010471895,6.251707698,1.954488181
6.681115094,7.43994583,6.577949439,3.401243494,1.97283342,3.294399622,3.100777395,5.227575266,1.414384723,4.242887351,4.018021324,-2.408571547,0.10239619,1.270566043,3.933905628,6.238589623,2.958866976,3.736009101,0.412603442
5.200597362,5.111508473,3.843893635,1.888655632,0.745968534,3.927266407,2.694469163,3.307155166,-2.377978551,0.898981394,1.752761009,-4.875136329,0.372538605,1.176770846,0.366714863,3.340633536,1.945808432,1.454126895,-0.735179337
3.626913888,2.975366339,1.316253662,-0.131077408,-1.011784599,4.406054395,2.217545162,0.311514145,-6.443818029,-2.981054558,-0.218201873,-6.547370562,0.396976469,1.30802704,-2.360161912,0.332685974,1.32991431,-0.241838034,-0.23492619
2.363345997,1.394689916,-0.649495107,-2.557426437,-2.698292746,4.447291826,0.866721781,-3.281049252,-10.31862585,-6.567221545,-2.214236994,-7.518813937,-0.446900675,1.571950867,-3.805830961,-2.229803866,1.024140189,-1.454126816,1.946941505
1.535557305,0.20698737,-2.107935791,-5.043647814,-3.787944922,3.885466759,-1.536902691,-6.462711093,-13.61681187,-9.098954674,-4.570945449,-8.107173164,-2.374000345,1.619436202,-4.19015396,-4.077620147,0.593927896,-2.533325869,4.52884399
0.998587504,-1.002326747,-3.306506053,-7.057277728,-4.00882084,2.857848067,-4.137540819,-8.011166479,-15.8065454,-10.13005992,-7.022910157,-8.435512329,-4.859776967,1.141414177,-4.025279214,-5.264925357,-0.348527892,-3.719003274,5.831824086
0.523825205,-2.432587562,-4.367910227,-8.140070042,-3.377702426,1.803125255,-5.482441176,-7.140431847,-16.22480608,-9.691933837,-8.531482604,-8.175471835,-6.747806378,0.194000258,-3.654326076,-5.977918276,-1.771432356,-4.897134917,4.983684618
-0.005498337,-3.815030738,-5.151502875,-8.214917188,-2.154893595,1.200272815,-4.587774598,-4.150695227,-14.515101,-8.35448262,-7.881129609,-6.750971789,-6.877323898,-0.760433578,-3.087682432,-6.304032797,-3.177691638,-5.648202225,2.489158381
-0.532832377,-4.585530752,-5.387832385,-7.687716967,-0.767110741,1.21452327,-1.811641848,-0.550145296,-11.17504619,-7.085438794,-4.677843911,-3.897549536,-4.881205089,-1.170445259,-2.213743076,-6.160951296,-3.927221709,-5.536881498,-0.208642909
-0.902685786,-4.322466161,-4.929908406,-7.202619059,0.312711889,1.544833877,1.226033979,1.639957611,-7.633366122,-6.832893933,0.066630588,-0.117136568,-1.578036984,-0.826904143,-1.110076555,-5.418371922,-3.66992794,-4.418360805,-1.75260479
-0.963034786,-3.070191914,-3.876455215,-7.174825282,0.743411574,1.636751784,2.709553512,1.099748623,-5.562919642,-7.956722207,4.344913222,3.408022391,1.402359888,-0.048177606,-0.110991993,-4.067245337,-2.549515305,-2.539467313,-1.67047517
-0.605789521,-1.285873858,-2.465888794,-7.438537631,0.489639674,1.122091971,1.903598506,-1.846624092,-5.794042282,-9.864618387,6.362568348,5.464836095,2.581403665,0.548036145,0.45179818,-2.266633031,-1.037618839,-0.381557302,-0.428319451
0.238958343,0.516082282,-0.86864612,-7.312506412,-0.139218576,0.131833836,-0.340766318,-5.298192763,-7.647680987,-11.20891977,5.674123944,5.576150457,1.54917421,0.512411744,0.582664512,-0.238406668,0.434388335,1.615488467,1.126305445
1.573589659,2.097232982,0.900738179,-6.092552017,-0.671109926,-0.792969951,-2.238937055,-6.933234585,-9.30134806,-10.66425776,3.389354393,4.313846594,-0.796118894,-0.101135047,0.685625895,1.862751191,1.725330037,3.24291613,2.362228236
3.24129538,3.53216851,2.859076042,-3.639299885,-0.796956352,-1.139157421,-2.363770102,-5.521933009,-9.027778257,-7.838994181,1.309930419,2.921965905,-2.845319729,-0.795164786,1.255900579,3.960068672,2.922694214,4.518737892,3.049226588
4.862074262,4.964831187,4.849152938,-0.615397764,-0.611800618,-0.850009622,-0.574504708,-1.737646783,-6.42111292,-3.666594641,0.688805323,2.536203028,-3.281114773,-1.023045847,2.4486468,5.939526707,4.065542683,5.545431449,3.15170826
5.926535705,6.351589179,6.484808566,1.844689688,-0.560369279,-0.37572086,2.082402654,2.329135587,-2.675037317,0.083095562,1.559899681,3.568028254,-1.799644908,-0.598070499,3.905577492,7.54997288,4.940832692,6.37542742,2.608120999
6.063919307,7.444479341,7.347530103,2.831568561,-1.086491775,-0.287653607,4.317413148,4.613295157,0.311225603,1.900619147,3.063553476,5.643946668,0.879467343,0.190500464,5.002563268,8.46070417,5.169016922,6.983520666,1.38965259
5.315422553,8.013659068,7.289479637,2.234586124,-2.236652212,-0.773609348,5.555689388,4.431229634,1.307018022,1.480675867,4.355589511,8.025597983,3.604443613,0.806898399,5.307814103,8.461640117,4.522264575,7.323953198,-0.255068304
4.169029952,8.064347045,6.567948163,0.774733144,-3.542462478,-1.446704982,6.149597291,2.787672706,0.540955008,-0.177005043,5.253296105,10.08890681,5.481696041,0.827061519,4.851997098,7.628620126,3.191133651,7.374056342,-1.728608714
3.257107271,7.807361868,5.657890013,-0.529594101,-4.315333426,-1.645726472,6.774883372,1.471358128,-0.672563725,-1.583036348,6.091176821,11.48938114,6.198036177,0.148214698,3.984883118,6.279299569,1.739564044,7.102766,-2.402396746
2.895049085,7.39240876,4.869002158,-1.074241299,-4.161894254,-0.988817367,7.629266675,1.674611685,-1.113047898,-1.869931115,7.019987458,12.00263934,5.882801828,-1.055183099,2.973417944,4.730534584,0.749343221,6.40609345,-2.118370243
2.814587618,6.669000805,4.084879819,-1.045383758,-3.331110111,0.280378501,8.164599138,3.175203537,-0.659741763,-1.363508804,7.495478016,11.34869451,4.78436471,-2.507780897,1.735052215,3.068757306,0.428811049,5.112472462,-1.399857889
2.339966271,5.246780417,2.863236044,-1.208170247,-2.606621216,1.449180102,7.562900015,4.624068386,-0.33543701,-1.217139856,6.516147322,9.288258035,3.096782596,-3.947920058,-0.026939672,1.159910904,0.506024665,3.109399835,-1.08427909
0.919531333,2.859674665,0.840532497,-2.295264182,-2.793912894,1.871837873,5.499013248,4.617140952,-1.41734321,-2.45087109,3.461405591,5.95141815,1.02897174,-5.11303983,-2.403270723,-1.083212078,0.497811075,0.518619492,-1.60596774
-1.377844252,-0.265414733,-1.880080253,-4.461492321,-4.160852985,1.445632401,2.501532724,2.685170568,-4.388485167,-5.176029818,-1.204293142,2.051169726,-1.072583465,-5.70607068,-4.980321001,-3.413227663,0.133713477,-2.233457548,-2.533365714
-3.799902967,-3.386194351,-4.681290279,-7.186176043,-6.228245994,0.641897257,-0.396899372,-0.497212613,-8.569365408,-8.5798794,-6.028207679,-1.337023279,-2.783590034,-5.489578783,-6.989708646,-5.235678981,-0.417041363,-4.552684087,-2.820476468
-5.361088027,-5.647824361,-6.778989047,-9.642803484,-8.047325469,0.083166642,-2.400962441,-3.704831782,-12.64856151,-11.59138892,-9.463450132,-3.378182056,-3.862755892,-4.503675201,-7.835930429,-5.949376058,-0.703666843,-5.967210145,-1.64410979
-5.483530092,-6.619096781,-7.700019819,-11.21198127,-8.752472655,0.033643705,-3.447050482,-5.980065524,-15.58742623,-13.6107875,-10.86866498,-4.025024927,-4.477378548,-3.214407516,-7.569049222,-5.395231557,-0.40239851,-6.378238565,0.838010983
-4.349943736,-6.529062773,-7.523734613,-11.75010066,-8.009170609,0.227514694,-4.059901762,-7.040785629,-17.13781277,-14.70542748,-10.8165651,-4.036151651,-5.128095729,-2.376893058,-6.873436277,-4.031274353,0.371106125,-6.081663002,3.469710844
-2.711956942,-6.000533482,-6.717998068,-11.46683855,-6.099640132,0.157269115,-4.75017874,-7.099643122,-17.63751591,-15.20144967,-10.48504589,-4.381788845,-6.25292889,-2.603466342,-6.533461727,-2.643427568,1.116403429,-5.527381031,4.89995759
-1.322670001,-5.493930086,-5.727995994,-10.59159647,-3.675299711,-0.450815682,-5.5123755,-6.435758765,-17.41213745,-15.14784413,-10.65816818,-5.461494398,-7.797812418,-3.904142161,-6.78769588,-1.782861188,1.33942802,-4.980222383,4.600514548
-0.444730865,-4.924609166,-4.661297221,-9.152788616,-1.4150286,-1.394413245,-5.856033565,-5.190261967,-16.41460701,-14.20997333,-11.16005125,-6.749960739,-9.124110627,-5.564551071,-7.103351001,-1.370056614,0.970048504,-4.330268542,3.282054897
0.201281827,-3.778445845,-3.309607455,-7.054049255,0.186395084,-2.187429859,-5.308747935,-3.533871137,-14.43391918,-12.10572151,-11.14719723,-7.177449147,-9.385800068,-6.524658403,-6.576441642,-0.796239745,0.465157034,-3.199266802,2.358111582
1.057289122,-1.633523228,-1.455672143,-4.3468501,0.856329376,-2.501943756,-3.916719053,-1.925570364,-11.61426599,-9.145574275,-9.953828604,-5.974523984,-8.133758518,-6.050854543,-4.655607996,0.542475435,0.498293622,-1.273772382,2.870215883
2.270513435,1.349637592,0.816755372,-1.419222507,0.522822106,-2.460245596,-2.291036625,-1.066521589,-8.704270201,-6.292871341,-7.74734825,-3.332915632,-5.702436805,-4.243860052,-1.62091957,2.70090161,1.457927617,1.375452584,4.718874411
3.545299501,4.388315906,3.075409203,1.106462752,-0.658219612,-2.516400028,-1.162191096,-1.4592642,-6.698804605,-4.57201263,-5.456265381,-0.365917997,-3.077452768,-2.008054786,1.556544354,5.070989671,3.126380876,4.225814445,6.788993047
4.401107787,6.539442563,4.786196998,2.717705969,-2.255313659,-3.031217971,-0.832462271,-2.914364046,-6.115377335,-4.264982502,-4.069761304,1.611224978,-1.320929119,-0.479684149,3.858177542,6.7941832,4.779409096,6.548823364,7.834466219
4.581746643,7.304914339,5.642117549,3.331275157,-3.625685271,-3.914075339,-0.988246471,-4.486720619,-6.529343496,-4.597784861,-3.916000695,1.947309012,-0.947690386,-0.297612361,4.866158399,7.370881075,5.639763546,7.808813449,7.396339125
4.24761193,6.909999598,5.709960541,3.324675561,-4.169085321,-4.648025621,-1.011083318,-5.014457536,-6.821604208,-4.2673498,-4.493174463,1.043262629,-1.663198843,-1.211678159,4.944433103,6.983595551,5.368095153,7.945042947,6.045434949
3.793027897,6.054743197,5.297638741,3.238759382,-3.66805906,-4.685589688,-0.505954633,-3.924744826,-6.006927549,-2.466853625,-4.928403549,0.018564895,-2.601508483,-2.281559191,4.867888102,6.290091659,4.257766876,7.349572164,4.820442427
3.46870988,5.359180463,4.677449506,3.370315701,-2.474586529,-3.887778707,0.392166885,-1.702595471,-4.01444814,0.385481413,-4.635156292,-0.057595418,-2.864622293,-2.509777835,5.230704322,5.872370957,3.014645731,6.565413909,4.374586296
3.156686667,4.948210119,3.90248045,3.56304897,-1.358174747,-2.645044191,1.157275529,0.364612161,-1.808871465,2.824315179,-3.648650736,1.18504931,-2.008981621,-1.474790072,6.081274806,5.791488948,2.28588663,5.920906889,4.526179044
2.501714779,4.480025598,2.85272056,3.355513069,-1.062362421,-1.586726803,1.303615958,1.015133559,-0.753382333,3.338453226,-2.463113933,3.284143828,-0.224753641,0.433947537,6.994488208,5.589797544,2.257802986,5.353533264,4.520175449
1.282868601,3.548785337,1.444332521,2.373751992,-1.84697947,-1.12149597,0.742779073,-0.168571496,-1.692892167,1.463604966,-1.621570017,5.310381214,1.815540974,2.284262694,7.437413683,4.708071452,2.579415237,4.536146573,3.713242408
-0.30532751,2.102062283,-0.195135285,0.672307541,-3.329179506,-1.174801021,-0.194683085,-2.516935885,-4.416116615,-1.847226518,-1.439097531,6.400653439,3.288890088,3.156300858,7.108075463,2.962565918,2.643812284,3.201752001,2.094743434
-1.717194097,0.532541607,-1.740804742,-1.234043511,-4.735215866,-1.310710461,-1.036853854,-4.739010638,-7.826448982,-4.843166755,-2.009958609,6.115686007,3.558552789,2.630188489,6.033929602,0.710895498,2.02869014,1.422926332,0.261690526
-2.425164044,-0.60775339,-2.862614837,-2.677421418,-5.386347937,-1.109656503,-1.488849996,-5.7308545,-10.61867422,-6.115639612,-3.332504738,4.505395916,2.411400736,0.95197495,4.459937295,-1.38781062,0.804455954,-0.362766427,-1.050199494
-2.294710055,-1.016050571,-3.437137911,-3.265266974,-5.086065706,-0.486536811,-1.553539058,-5.169976283,-11.95145418,-5.435487859,-5.306655287,1.988527628,0.154362089,-1.151958801,2.701785962,-2.793415224,-0.488072033,-1.604651969,-1.446850676
-1.66138012,-0.836603964,-3.607934368,-3.123884573,-4.165107948,0.285462646,-1.418522808,-3.558639272,-11.71702072,-3.736953208,-7.574066133,-0.802792724,-2.458607673,-2.856027589,1.085901893,-3.357727012,-1.17376778,-1.988313214,-1.00952028
-1.053512944,-0.504909826,-3.645512945,-2.780352983,-3.196009487,0.823240059,-1.258118716,-1.790839048,-10.37227069,-2.348510124,-9.430817007,-3.168762758,-4.485466362,-3.600958834,-0.054560013,-3.288995968,-0.875605443,-1.628894721,-0.07922447
-0.789842641,-0.381979655,-3.712790644,-2.759290022,-2.610461541,0.925613777,-1.119353904,-0.59769171,-8.577379922,-2.080340711,-10.05025686,-4.522004508,-5.185651058,-3.291626226,-0.431523194,-2.910692452,0.237243791,-0.966503887,1.023535992
-0.769952754,-0.472584637,-3.712292795,-3.171470631,-2.483698387,0.682443135,-0.940072638,-0.208792658,-6.898244972,-2.790137499,-8.969644086,-4.603984784,-4.37463861,-2.276312149,0.071496055,-2.447533693,1.55015204,-0.440185027,2.08305799
-0.605367615,-0.433928174,-3.331424649,-3.582122494,-2.59227497,0.354714374,-0.625782291,-0.343054074,-5.652020108,-3.622318498,-6.484662702,-3.621799342,-2.531859532,-1.144001208,1.299234995,-1.984572412,2.391229775,-0.181119973,2.881660759
0.037942329,0.15279537,-2.260707052,-3.260401394,-2.646211834,0.163587425,-0.097982783,-0.4292942,-4.836650716,-3.629401295,-3.580598229,-2.154838521,-0.553748382,-0.435331187,2.876731022,-1.555637259,2.45405671,0.049628393,3.126852262
1.170479719,1.465817142,-0.436521564,-1.65290774,-2.498956623,0.164902693,0.698318238,0.105988873,-4.10985587,-2.300449087,-1.366800969,-0.815696446,0.738759316,-0.3935886,4.417208096,-1.212387322,1.975529323,0.640960342,2.592739884
2.488218968,3.31208126,1.86350576,1.232366433,-2.199069774,0.274513789,1.779898363,1.589320007,-2.884988899,0.290239687,-0.395524621,0.139230424,1.049744385,-0.871683328,5.736508977,-0.986827915,1.553874072,1.809571064,1.39943695
3.630216661,5.26122564,4.151765284,4.790537155,-1.890595548,0.372838851,3.078023118,3.937392582,-0.614529758,3.666141731,-0.368291566,0.964128264,0.734657302,-1.443291227,6.90062564,-0.803162469,1.739424586,3.433928702,0.149475375
4.463040812,6.93191596,6.015310356,8.157416835,-1.673707396,0.377511027,4.402462882,6.630475402,2.820936581,7.220718741,-0.439772405,2.201926479,0.53173596,-1.657784388,8.075167173,-0.465006812,2.68614688,5.173376562,-0.295835225
5.164664893,8.221807662,7.36473624,10.68845124,-1.537028813,0.243659095,5.4839287,8.879549569,6.870117433,10.38921259,0.136251531,4.229353147,1.087406573,-1.290679186,9.324048663,0.227903213,4.098824616,6.763629992,0.677827779
6.048999509,9.323078864,8.461941631,12.24953938,-1.394051137,-0.060026007,6.097512078,9.974093484,10.45212514,12.70908088,1.516810598,6.903865473,2.584809624,-0.441712874,10.54471871,1.315899574,5.486109946,8.226636639,2.994723742
7.272412514,10.51648024,9.679961773,13.12812346,-1.174894806,-0.538539466,6.178109739,9.657128865,12.4718934,13.86610028,3.258801749,9.578204908,4.683470574,0.56683102,11.58469592,2.611621715,6.504299614,9.797635252,5.84870045
8.64592553,11.88760023,11.14400213,13.65504582,-0.89804454,-1.125805168,5.822406493,8.286460082,12.40256813,13.77817576,4.693829551,11.46765102,6.748936667,1.405587162,12.39679439,3.793825443,7.126383363,11.61362854,8.121309695
9.694413423,13.16793009,12.51995496,13.84839899,-0.675784712,-1.673692259,5.164429724,6.628255819,10.53951248,12.65550728,5.313930328,12.09290609,8.176432247,1.914720442,13.04827966,4.586866786,7.533196876,13.43025924,8.98277889
9.930123736,13.83304218,13.14869841,13.37666413,-0.655482007,-2.021623411,4.233339301,5.373403808,7.752398094,10.93582444,4.877952628,11.48917781,8.609591349,2.138087913,13.55474245,4.880523148,7.861503497,14.64320976,8.28728479
9.165641754,13.42525535,12.48685698,11.88654033,-0.933085768,-2.107972519,2.931893148,4.691591373,4.927359668,9.078575451,3.280710388,10.08032833,7.988607664,2.230518785,13.71433731,4.710422804,8.055698257,14.65711253,6.551262902
7.666673338,11.9034252,10.56284458,9.436153308,-1.485569998,-2.02263213,1.170566847,4.146214886,2.504265372,7.330688486,0.464503916,8.37495101,6.49374853,2.341032267,13.15841831,4.150916485,7.959771539,13.34616027,4.60373034
6.041805723,9.769470238,8.091200634,6.659820509,-2.160600257,-1.936227972,-0.956446151,3.048187836,0.406590141,5.623183284,-3.437810908,6.732598905,4.473259742,2.561543639,11.64388385,3.239861634,7.551541907,11.23539068,3.177351412
4.921510057,7.839027548,6.096583221,4.475838376,-2.737958955,-1.95264016,-3.1206112,1.003852157,-1.662515694,3.675496172,-7.856159146,5.322346936,2.374018371,2.942060318,9.354756136,1.997802685,7.073761887,9.216463352,2.660378851
4.605196088,6.76114474,5.260229026,3.508104208,-3.040344052,-2.013149443,-4.900307825,-1.735484064,-3.846912474,1.242142102,-11.76772331,4.19912435,0.633535915,3.502775968,6.91095497,0.489990757,6.897961315,7.970643446,3.050089393
4.884397179,6.595135569,5.447987155,3.646406738,-3.035060893,-1.946336632,-6.010654375,-4.367836208,-5.974471154,-1.652786254,-14.10150899,3.349511127,-0.477812945,4.19223993,5.003016041,-1.166454515,7.205835661,7.52248469,4.020907379
5.160224155,6.758889975,5.794412809,4.102279065,-2.860443303,-1.628648793,-6.435217907,-5.9993115,-7.667795189,-4.628728636,-14.35574356,2.661851369,-0.98496197,4.828255138,3.912196089,-2.874435766,7.768971807,7.275805259,5.033641235
4.803610782,6.430448988,5.32730036,3.957112244,-2.7503734,-1.112754354,-6.356770446,-6.140965399,-8.570116734,-7.053381768,-12.9448072,1.924092744,-1.185288705,5.118948254,3.325993578,-4.618585778,8.060883899,6.524635814,5.49367704
3.550472967,5.154782817,3.700245631,2.817169033,-2.899762566,-0.599992416,-5.961849416,-4.928527765,-8.495922267,-8.29215632,-10.93260562,0.967424219,-1.433658903,4.817594014,2.65079069,-6.407762239,7.66257103,5.057973242,4.9816582
1.683742643,3.224959475,1.488507099,1.091524717,-3.361628988,-0.270971845,-5.302004537,-2.981689361,-7.457494719,-8.003952518,-9.292389191,-0.085191264,-1.851271273,3.937753469,1.603110464,-8.108786509,6.649190639,3.387256859,3.489323477
-0.12483528,1.535332479,-0.190096438,-0.314490394,-4.046647778,-0.122664085,-4.332043114,-1.065557785,-5.653541197,-6.363898036,-8.252608751,-0.686090397,-2.17146293,2.857789637,0.586984445,-9.334737432,5.618050817,2.403508333,1.497566594
-1.220021327,0.979425649,-0.459276553,-0.653961183,-4.815431412,0.035436566,-3.070355573,0.210800947,-3.488285051,-4.092904039,-7.25770993,-0.060723873,-1.868859476,2.181727763,0.497544244,-9.568913154,5.286516167,2.710075949,-0.228627171
-1.348884033,1.815785523,0.711888899,0.156755195,-5.576559218,0.411076942,-1.704625674,0.538801839,-1.558888125,-2.217933378,-5.582440334,2.289612338,-0.518064005,2.393188389,2.049468182,-8.525960956,5.945546856,4.136162019,-1.063948051
-0.766255187,3.472649052,2.534754212,1.550892459,-6.300251532,1.029021174,-0.516908182,-0.066962774,-0.484790219,-1.606658786,-3.089293633,6.101943784,1.853962091,3.515834775,5.139475537,-6.505206953,7.200416294,5.809877503,-0.903323744
0.004708326,4.948628826,4.017129731,2.793919908,-6.939124518,1.679332902,0.317923741,-1.288307441,-0.573095056,-2.484086379,-0.485219986,10.28463393,4.673030311,5.028203861,8.760287203,-4.408001414,8.226368154,6.750980293,-0.219225257
0.570958048,5.519362377,4.675741661,3.524437912,-7.345149316,2.065304767,0.866977533,-2.563304098,-1.53059318,-4.231218883,1.154682799,13.41807907,7.060968636,6.126386811,11.56472385,-3.293425606,8.364520545,6.553118208,0.272091938
0.926619095,5.225356101,4.795788452,3.923239105,-7.292938043,2.024196521,1.355233223,-3.257243569,-2.514164296,-5.666999834,1.212480481,14.54981605,8.268718588,6.188391387,12.6704094,-3.712992475,7.606482966,5.659313678,0.111794417
1.383443452,4.782811019,5.070984243,4.411740911,-6.632156349,1.627414537,1.907495164,-2.963512324,-2.613126998,-5.727256442,0.020509749,13.75136695,8.033229643,5.146446206,12.11552544,-5.300580269,6.59463893,5.035925603,-0.59138717
2.247428842,4.999817363,5.957948538,5.176915976,-5.463816693,1.076349901,2.339489012,-1.799048035,-1.496153614,-4.152499143,-1.38276778,12.03461656,6.660772094,3.529629785,10.66676078,-6.971959578,6.139848208,5.484531493,-1.261476541
3.510384868,6.149019264,7.284607755,5.947792162,-4.181903836,0.499367478,2.210503891,-0.460649011,0.258710068,-1.720352133,-2.027071132,10.66920571,4.825449199,2.157565577,9.190561367,-7.658951571,6.62812924,7.07524181,-1.279268624
4.802042871,7.759294772,8.406078933,6.210353899,-3.304476956,-0.149819678,1.142793458,0.093938842,1.467789066,0.18396921,-1.682298739,10.36769385,3.231942206,1.687147111,8.10345812,-7.082285868,7.758686225,9.075562725,-0.413491372
5.629089366,8.948644587,8.729736754,5.659108305,-3.181726269,-0.985171115,-0.821316062,-0.786945326,1.132540723,0.420467924,-0.911171326,10.88856168,2.328276298,2.286695238,7.284211202,-5.995040495,8.782142186,10.39172038,1.036550817
5.697979111,9.012824498,8.142670507,4.483774817,-3.779196,-1.968011129,-3.112506388,-2.987373458,-0.832446547,-1.181904864,-0.524016421,11.29219503,2.179876159,3.603091233,6.40819424,-5.689405024,9.023195792,10.2065054,2.447236432
5.068723699,7.830692347,7.004376907,3.245544904,-4.693844443,-2.795054805,-4.890158327,-5.604186241,-3.479827122,-3.71542499,-0.942147251,10.62241625,2.515016209,4.994421145,5.333917925,-7.096682981,8.285349907,8.411456013,3.239604963
4.048396117,5.84211789,5.776877193,2.461930377,-5.393716649,-3.040307118,-5.50102092,-7.422304481,-5.425596355,-5.764145455,-1.996005372,8.524730066,2.892332741,5.861730404,4.202301697,-10.11752454,6.875115155,5.611274646,3.15468606
2.95423999,3.703189619,4.674442456,2.265718996,-5.511300928,-2.471175316,-4.83022041,-7.590879698,-5.732643798,-6.256261094,-3.249785178,5.421549658,2.924957052,5.901787002,3.230641139,-13.65885559,5.303806488,2.760832566,2.304142544
1.960663181,1.928261782,3.651103312,2.41759361,-4.995031097,-1.280525339,-3.318855721,-6.06347855,-4.44872538,-5.03255367,-4.466022871,2.217555282,2.485961495,5.188634266,2.471615636,-16.34556914,3.949801873,0.682568379,1.044656617
1.128143791,0.748225778,2.682869184,2.620729723,-4.047799488,-0.013094159,-1.665392684,-3.539575653,-2.451795704,-2.807245564,-5.734348766,-0.188267791,1.804088682,4.091421102,1.798258759,-17.40104539,2.926966716,-0.282206397,-0.196371782
0.518803337,0.170564378,1.996348137,2.815938914,-2.945407544,0.795860625,-0.433958167,-0.996839708,-0.789382398,-0.642304982,-7.154373585,-1.263019062,1.372969093,3.090265006,1.105215672,-17.09657003,2.179425578,-0.357747874,-1.065663624
0.225229442,0.067491182,1.945652638,3.174108173,-1.89453585,1.003595404,0.184449006,0.838869763,-0.044211311,0.644589348,-8.430012327,-0.938533453,1.67893533,2.561980331,0.473690743,-16.50313186,1.632920186,-0.165144704,-1.399194905
0.252523859,0.178550832,2.60623605,3.809321259,-1.015441816,0.956642312,0.358311704,1.757245872,-0.157407562,0.767813675,-8.85525688,0.472356485,2.877345279,2.606446434,0.084624983,-16.76985883,1.239719962,-0.400890303,-1.309968047
0.382884533,0.095865558,3.487221735,4.520423877,-0.402509641,1.207363565,0.426671188,1.976041074,-0.720389548,-0.109011551,-7.820366748,2.401575215,4.62233489,2.985273688,-0.05251503,-18.43934357,0.91717379,-1.49847963,-1.187296912
0.217389337,-0.615888415,3.723176847,4.856052866,-0.153837867,2.060047151,0.686782876,1.86631918,-1.387521565,-1.618727308,-5.453326556,4.1470508,6.194238281,3.223820284,-0.250823533,-21.21497823,0.514769462,-3.411190647,-1.52633253
-0.557233934,-2.139526844,2.690475282,4.487907849,-0.32078498,3.301061141,1.262929043,1.719346755,-2.053403144,-3.363090961,-2.809023635,5.043997939,6.884151396,2.8604005,-0.943908648,-24.2389833,-0.089725225,-5.620806601,-2.609113935
-1.866080987,-4.160295223,0.564533368,3.554310371,-0.838920814,4.329734773,2.073643517,1.660280713,-2.735817202,-4.95962892,-1.338680354,4.71576001,6.409855428,1.73187607,-2.242240043,-26.61142436,-0.827668039,-7.38838173,-4.222868268
-3.192668316,-5.923212452,-1.697281563,2.615745343,-1.541988574,4.59313054,2.872556607,1.658292595,-3.395603543,-6.083258751,-1.963364837,3.301350609,5.096842862,0.129239206,-3.654054403,-27.80003132,-1.387963955,-8.134276396,-5.660989276
-3.890768962,-6.662692791,-3.019680172,2.194833154,-2.280758433,3.990234465,3.348668908,1.547454056,-3.93495242,-6.601525139,-4.435372161,1.468536171,3.705859282,-1.297879155,-4.309025934,-27.75709216,-1.385474433,-7.739792547,-6.096493441
-3.663545427,-6.145231717,-3.031695975,2.273515611,-3.045172425,2.938964871,3.277255596,1.059465509,-4.365253509,-6.723375281,-7.481863818,0.106946823,3.020013692,-1.867818261,-3.602291351,-26.79373286,-0.65419038,-6.587893088,-5.127890945
-2.827953938,-4.902401814,-2.372986812,2.21759591,-3.952862538,2.066320974,2.672395847,-0.056992246,-4.903811046,-6.960239316,-9.631244551,-0.176115325,3.448626502,-1.252473153,-1.76077832,-25.37899198,0.576586339,-5.31776891,-3.109542283
-2.116433017,-3.918353939,-2.195824302,1.268706661,-5.076186657,1.770586299,1.841341573,-1.813851995,-5.802324416,-7.805202743,-10.11024734,0.554005651,4.863311754,0.306266815,0.17990841,-23.98568373,1.798059301,-4.458294162,-0.984637335
-2.136341474,-3.955847607,-3.233084106,-0.755828032,-6.246646459,1.98696693,1.257400069,-3.796644641,-7.003930344,-9.308814152,-9.181463083,1.56622476,6.7067541,2.089217318,1.048771756,-22.99348093,2.563820616,-4.183050415,0.303335164
-2.905898166,-5.014206809,-5.179517343,-3.148644696,-7.039112903,2.309762901,1.280542479,-5.232006709,-7.975993525,-10.90950652,-7.761331491,1.898313933,8.255105502,3.261003097,0.369820576,-22.60483578,2.787518669,-4.325760914,0.40818831
-3.845910494,-6.335052545,-6.894267653,-4.710970194,-7.013887,2.340181161,1.890573322,-5.397891278,-7.990496137,-11.74780092,-6.711073589,0.951743926,8.881541495,3.300834103,-1.311779299,-22.76634254,2.750938211,-4.588995284,-0.25392509
-4.241922559,-6.950233335,-7.263284706,-4.615537272,-6.067167018,1.969282979,2.632471991,-4.177311818,-6.738379381,-11.31065472,-6.377381335,-1.137573778,8.243764851,2.266138849,-2.874942118,-23.1505169,2.822282187,-4.741881103,-0.888188358
-3.800647337,-6.343096531,-6.021060354,-3.07238037,-4.606442136,1.387019294,2.848758287,-2.348261869,-4.798124273,-9.927127864,-6.660813329,-3.58449433,6.392811727,0.749797986,-3.466053696,-23.25558531,3.136288985,-4.6504316,-0.941787152
-2.84344902,-4.722013671,-3.87811861,-1.248547343,-3.364796021,0.847650908,2.067032388,-1.294632191,-3.490598221,-8.677377998,-7.404709364,-5.42323558,3.795761236,-0.441262928,-3.034382385,-22.60846795,3.517255602,-4.169962784,-0.471128035
-1.986183414,-2.740700528,-1.890582596,-0.463483695,-2.942999971,0.415774932,0.285031956,-2.208835601,-4.092612027,-8.701901703,-8.656468433,-6.053103555,1.216752693,-0.717145545,-2.132598857,-20.97390725,3.700572307,-3.077559381,0.012585649
-1.59144375,-0.952276731,-0.633411934,-1.255934447,-3.402721289,-0.08635773,-2.03876066,-5.267497534,-6.91657854,-10.38518507,-10.54215539,-5.542431446,-0.583301848,-0.02712982,-1.215847359,-18.45779879,3.629942634,-1.187002227,0.049918101
-1.47011337,0.531500855,0.132068694,-3.025930793,-4.224299681,-0.892896062,-4.267555105,-9.36261476,-10.94127373,-13.0292956,-12.90976831,-4.554707886,-1.238753729,1.09170868,-0.130981567,-15.45981965,3.533614747,1.40760005,-0.360242125
-1.08709113,1.929352985,1.067474095,-4.505546949,-4.677218941,-2.034764065,-5.927613192,-12.63916921,-14.31818939,-15.28394054,-15.14240462,-3.984635901,-1.023924899,1.776828824,1.681202552,-12.52207454,3.68934137,4.185771604,-0.79599697
-0.083518817,3.395627748,2.547704315,-4.670425654,-4.333985398,-3.228019361,-6.874065481,-13.53859044,-15.44000688,-16.02129495,-16.39594526,-4.511962814,-0.711976089,1.301691036,4.417448941,-10.16544835,4.090607305,6.346188002,-0.830568194
1.348194757,4.736267081,4.28288862,-3.388606063,-3.344478933,-4.00672806,-7.205057686,-11.6777233,-13.84082127,-15.00106502,-16.11666758,-6.265968203,-1.038039176,-0.487077924,7.30345788,-8.782177854,4.343437886,7.199125823,-0.437228885
2.567688865,5.480929673,5.580106434,-1.354327368,-2.273622813,-4.001026596,-7.044679252,-7.989004863,-10.32942039,-12.84667211,-14.41142646,-8.711956839,-2.082386472,-2.996573398,8.816268868,-8.598892567,3.932080137,6.517951282,-0.008213176
2.976181731,5.195059344,5.950231275,0.556344373,-1.643417311,-3.153299385,-6.389077567,-4.050370028,-6.32670913,-10.4066297,-11.93989034,-10.79665278,-3.041954957,-5.108438803,7.716631571,-9.688019142,2.653394867,4.550253404,0.025991571
2.46152602,3.698608573,5.458975612,1.93718826,-1.541232199,-1.723402547,-5.118992044,-1.081271181,-2.936014631,-8.054598093,-9.397721965,-11.33014346,-2.653800241,-5.718234646,4.11739488,-12.00008716,0.841398288,1.659484125,-0.380350497
1.414503144,0.993425336,4.490427619,3.000306678,-1.588946,-0.100227654,-3.128013939,0.716441595,-0.403025039,-5.499876423,-7.014047919,-9.501879599,-0.066069423,-4.320116462,-0.326763887,-15.39256794,-0.838057386,-2.089532553,-0.825967711
0.320601062,-2.953170337,3.181344149,4.177663261,-1.27667416,1.424253024,-0.4414232,2.066292268,1.736380501,-2.234839211,-4.484480523,-5.326654585,4.435548812,-1.302485669,-3.374793806,-19.62573798,-1.871211019,-6.982644713,-0.837628961
-0.686922724,-8.225682709,1.136494649,5.587131759,-0.389314473,2.753572978,2.746102364,3.898733255,4.047463494,1.785101785,-1.397961157,0.23085718,9.411348821,2.23719686,-3.63565553,-24.30117644,-2.250715026,-13.19748176,-0.350190241
-1.89611089,-14.61925571,-2.200818196,6.840959862,0.794407236,3.908792102,6.085363669,6.53964738,6.637083106,5.814186306,2.203057256,5.603154492,13.05111433,5.06794944,-1.391459269,-28.76475701,-2.390134517,-20.14784822,0.159790712
-3.640290586,-21.19998495,-6.782127265,7.33160951,1.655841397,4.866093556,9.082513338,9.358459427,9.02441937,8.625524915,5.611858403,9.336232196,14.2549823,6.453755765,1.823095764,-32.07285611,-2.671464315,-26.21775803,0.047053494
-5.825262017,-26.27320795,-11.50283118,6.706750821,1.605797367,5.460589633,11.11687025,11.08586817,10.45120191,9.225537223,7.802537226,10.80932995,13.2585194,6.459127009,4.513844227,-33.15637374,-3.034130221,-29.28041531,-0.917626001
-7.81225576,-28.04205382,-14.60319792,5.113326714,0.407945036,5.445613732,11.55603322,10.57065918,10.34590582,7.440179584,8.09024539,10.52054971,11.3591,5.765511065,6.311151087,-31.23386099,-2.995390508,-27.83024328,-2.261228212
-8.801475199,-25.66331577,-14.75574287,3.03812944,-1.721911388,4.669739551,10.02214063,7.49685822,8.631381963,3.975066709,6.610467738,9.722729196,9.954699946,5.152654129,7.952156488,-26.32935228,-2.116683136,-22.02666596,-3.102354524
-8.411509064,-19.95961475,-12.0353852,0.945537402,-4.234277718,3.238366061,6.708029673,2.64824183,5.750233697,-0.023846212,4.255523593,9.599805706,9.605627152,5.006505715,10.21796476,-19.57141302,-0.516905418,-13.88786577,-2.816531659
-6.961163987,-13.16069249,-7.969622099,-0.935590608,-6.454846345,1.530696114,2.502913991,-2.404119111,2.474199209,-3.537378022,2.113617961,10.49350412,9.787276235,5.165277908,12.80094239,-12.96145594,1.048151481,-6.381039591,-1.532588936
-5.20676913,-7.711224939,-4.552681545,-2.516296081,-7.772946049,0.040484124,-1.27201754,-6.003337485,-0.374744671,-5.992837943,0.813044201,11.68473596,9.455604828,5.153515781,14.17710193,-8.570424237,1.676808892,-1.897955638,-0.040909272
-3.756719372,-4.902876373,-2.933483014,-3.615272803,-7.787071607,-0.869390171,-3.469985466,-7.136663595,-2.204150342,-7.245017389,0.217978726,11.88366278,7.932368401,4.581953019,12.72506109,-7.518970124,1.02701692,-1.048069271,0.82291692
-2.662275691,-4.274265951,-2.763712957,-3.904065098,-6.428062981,-1.145432251,-3.732376937,-5.851467142,-2.872753794,-7.409264206,-0.354529486,10.11634179,5.415573229,3.408492796,8.241133154,-9.338388895,-0.338991572,-2.515072873,0.816864354
-1.523225455,-4.187169487,-2.676374117,-3.15534777,-4.035832115,-1.039708083,-2.69263487,-3.178646023,-2.765978766,-6.772440899,-1.594235558,6.433535664,2.770348343,1.906493198,2.566916346,-12.17395288,-1.288899472,-4.029666231,0.431300157
0.009203838,-3.126655934,-1.474165158,-1.581835823,-1.305259475,-0.922922905,-1.58341558,-0.609950422,-2.626323173,-5.809761014,-3.720625738,1.986934836,0.847709361,0.430812366,-1.331868339,-13.80460042,-0.914187607,-3.797781935,0.424310144
1.797149962,-0.758449555,0.928850996,0.100453729,0.955577264,-1.031947579,-1.464275487,0.624062866,-3.142384479,-5.141703591,-6.360014914,-1.569365374,-0.077054973,-0.792080159,-1.285646764,-12.91249013,0.812615309,-1.477832276,1.154431268
3.245108752,1.991470027,3.521142151,1.048312611,2.181285043,-1.314276535,-2.567797915,0.130532846,-4.491516588,-5.292239181,-8.797982864,-2.973701226,-0.321264987,-1.692732978,2.544236137,-9.823994184,3.01666745,1.837739171,2.275275309
3.769230844,3.791622227,5.068983072,0.872327038,2.318302567,-1.471639188,-4.196634738,-1.50185979,-6.148044473,-6.340311323,-10.39521951,-2.013126008,-0.345264885,-2.240998006,7.677603121,-6.243325834,4.540526802,4.500620094,3.043032569
3.287671823,3.955617161,5.080355026,-0.046158948,1.815732818,-1.175439047,-5.228297339,-3.06957031,-7.156705062,-7.75483076,-10.90156428,0.411302211,-0.306488486,-2.351367175,10.90863204,-4.139815159,4.721053478,5.389995732,2.966002331
2.294402548,2.876712423,4.079723875,-0.806623557,1.319150224,-0.311719397,-4.871940529,-3.439305854,-6.756235498,-8.642495829,-10.52025679,2.793305874,-0.035480922,-1.939338617,10.3524941,-4.503911593,3.747572914,4.511167611,2.237869943
1.450630339,1.596154548,3.047483255,-0.662706549,1.262346784,0.908804239,-3.170356939,-2.17847088,-4.949421293,-8.326538469,-9.744594792,3.779014616,0.577593985,-1.08547365,6.511363669,-6.771091791,2.386252773,2.824771961,1.583634401
1.054527665,0.954695995,2.578843326,0.392144117,1.630978791,2.05129247,-0.945346167,0.214860704,-2.605205088,-6.868770042,-9.096707358,2.768687741,1.207542973,-0.128317406,1.686865388,-9.262926987,1.355788079,1.539383549,1.646011072
0.850375842,1.042619283,2.494751914,1.592741545,2.043463897,2.702394334,0.725494203,2.59583346,-0.991328802,-5.128168883,-8.906079781,0.103707762,1.164929962,0.457329468,-1.717761124,-10.31860507,0.869415203,1.381034126,2.427859456
0.32758964,1.325068716,2.17914295,1.960807724,2.058896785,2.699567766,1.126277194,3.787027344,-1.046225738,-4.266562035,-9.210457524,-3.18064445,-0.058409143,0.353693794,-2.722809015,-9.351259755,0.656029177,2.265880338,3.25937647
-0.777101615,1.218727955,1.261079779,1.024777859,1.470468607,2.199547497,0.23821317,3.165991746,-2.883098483,-5.025407622,-9.797043891,-5.867408485,-2.212265207,-0.354449203,-2.096118799,-7.15177737,0.344221131,3.478652638,3.322479998
-2.23039743,0.561746972,-0.009740192,-0.84883171,0.391803638,1.556951671,-1.347728175,0.921119599,-5.829696946,-7.273747888,-10.35239765,-7.094424131,-4.230954461,-1.202633752,-1.426902284,-5.296371582,-0.185134773,4.151346888,2.306714872
-3.516224546,-0.396198156,-1.0171499,-2.742430752,-0.866114566,1.112081048,-2.810282646,-2.106475868,-8.902608521,-10.12222126,-10.65309428,-6.703448256,-4.865470145,-1.664003473,-1.80822921,-5.109267057,-0.780226016,3.723404186,0.66826783
-4.292162266,-1.371024101,-1.384580149,-3.834447911,-1.973727472,1.034119208,-3.513670709,-4.846729693,-11.32562111,-12.47947439,-10.70610958,-5.274345011,-3.596353867,-1.545709885,-3.151014068,-6.883416466,-1.289488559,2.15777879,-0.708684432
-4.649476343,-2.351546263,-1.336214042,-3.892691843,-2.671749382,1.303741874,-3.258086984,-6.445162884,-12.74765016,-13.63092495,-10.75543851,-3.828100486,-1.126385273,-1.16061916,-4.529914075,-9.826458538,-1.806064469,-0.127664267,-1.169343244
-4.931069142,-3.517601141,-1.459468019,-3.269900344,-2.764321569,1.804984436,-2.299440508,-6.543480459,-13.12281526,-13.46607997,-11.12716459,-3.30928584,0.988338845,-1.119629403,-5.116308441,-12.67602082,-2.612615699,-2.506091535,-0.744373694
-5.287139279,-4.868433048,-2.084811385,-2.484868457,-2.126109747,2.42454263,-1.179201718,-5.339103151,-12.49457368,-12.29895451,-11.9768726,-4.071755454,1.375815333,-1.871612902,-4.861861141,-14.4981121,-3.85899929,-4.408848637,-0.063903501
-5.4100425,-5.969454968,-2.868664101,-1.788495847,-0.799894012,3.080088726,-0.448836738,-3.457114133,-10.93887899,-10.5321729,-13.08162027,-5.63025166,-0.162079058,-3.31765832,-4.410314295,-15.12722935,-5.282056361,-5.495466997,0.174850352
-4.73824675,-6.130080826,-2.996026386,-1.068540754,0.886313369,3.685936684,-0.390734728,-1.692556578,-8.689512012,-8.464300461,-13.82544316,-6.848957286,-2.424574332,-4.788190943,-4.40798319,-15.02397457,-6.265709674,-5.685961776,-0.246294635
-2.983509357,-4.916375402,-1.862714208,-0.111857331,2.351917261,4.129225964,-0.855638847,-0.687604563,-6.238743564,-6.330051176,-13.43931855,-6.524308761,-3.538098501,-5.420248257,-4.862870038,-14.75493634,-6.245008941,-5.088879291,-0.921598586
-0.51174288,-2.56340709,0.347095078,1.070428435,3.03294799,4.311751577,-1.324171441,-0.644535855,-4.209854073,-4.415759217,-11.41002125,-4.083414266,-2.151831328,-4.691525601,-5.104843785,-14.52887619,-5.140760707,-3.899344541,-1.160608845
1.797918205,0.096798098,2.704395614,2.173204025,2.754494057,4.231094114,-1.207733242,-1.217646677,-3.031411192,-3.039560979,-7.84871732,-0.007609533,1.695468398,-2.758983997,-4.356358245,-14.11489472,-3.456037764,-2.333879863,-0.526682485
3.146514502,2.171627223,4.19212023,2.83929684,1.91450409,4.012660423,-0.247696856,-1.695263261,-2.674202522,-2.360259457,-3.590198121,4.300349293,6.588756535,-0.383182733,-2.411050142,-13.13927525,-1.92883676,-0.619364123,0.833469174
3.384503084,3.2890262,4.444251203,2.974458629,1.268160453,3.830786625,1.241184162,-1.434310841,-2.702915696,-2.19648959,0.091801411,7.190117535,10.57720841,1.507818773,0.151725265,-11.47240269,-0.99733645,1.003256443,2.290641684
3.0772317,3.762959809,3.967150429,2.835379388,1.400077936,3.759008265,2.486963464,-0.316408756,-2.634234073,-2.076489198,2.063062027,7.640005318,12.26957396,2.339113885,2.388699067,-9.382266246,-0.491698634,2.316254792,3.160685
3.003725568,4.233729374,3.68046731,2.805764059,2.254118763,3.675991654,2.716106166,1.087359348,-2.313780065,-1.548144679,1.921896828,5.845843685,11.5160828,2.184990441,3.703108575,-7.348944058,0.210228056,3.213129119,3.141807903
3.505963774,5.105553449,4.175423565,3.061420943,3.10242974,3.334588901,1.673481265,1.81495667,-1.990315083,-0.52873104,0.270494487,3.162846565,9.342979362,1.686980759,4.274685852,-5.716892491,1.687502926,3.772756017,2.475949284
4.232025064,6.244348865,5.295112947,3.422550417,3.0280001,2.574345931,-0.153234132,1.1383208,-2.023301211,0.600711129,-1.537244409,1.394486246,7.287055913,1.667820706,4.874324277,-4.484106499,4.017694543,4.225728509,1.763054045
4.477888743,7.143786946,6.338436986,3.519635331,1.592980643,1.521243784,-1.788203011,-0.886531214,-2.486797814,1.264895639,-2.094696303,1.799974083,6.576948533,2.672505564,6.212223724,-3.400970442,6.684180099,4.78305619,1.580620828
3.823035899,7.361626043,6.660613352,3.120650134,-0.805223962,0.595118598,-2.357361752,-3.348072046,-3.034390052,1.136331303,-0.73673427,4.369087127,7.586557312,4.679792648,8.319409226,-2.286840877,8.888609144,5.421780561,2.151354341
2.514624097,6.831525326,6.147467438,2.331942891,-3.170646469,0.274147163,-1.631689117,-4.991118552,-3.167851585,0.401079064,2.020755614,7.777809951,9.746534182,7.11406436,10.4258067,-1.285661581,10.02000703,5.801705208,3.236327278
1.285289976,5.819840016,5.207162842,1.506217994,-4.571138655,0.75821785,-0.173030858,-5.008931868,-2.696523337,-0.373368805,4.680487922,10.06256779,11.85129775,9.127735918,11.42454769,-0.824849973,9.960093864,5.430516786,4.285585516
0.780756957,4.642580214,4.368447417,0.951166944,-4.734228279,1.775602359,0.993507416,-3.592456689,-1.995873447,-0.674504975,5.530857059,9.650591753,12.57722183,10.00067088,10.59409207,-1.282261306,9.06898551,4.014758434,4.746740294
1.09480521,3.455296875,3.89014232,0.69813849,-4.142361868,2.696412555,0.948164254,-1.854848366,-1.828175034,-0.444869476,3.570284023,6.190091937,11.02333417,9.462852063,8.086200227,-2.613595374,7.932875121,1.762153609,4.367577041
1.789983909,2.308030445,3.711379101,0.523400144,-3.586845049,2.900627166,-0.666340652,-1.163001731,-2.84129897,-0.12775229,-0.926212609,0.743818513,7.114240188,7.795021814,4.8709507,-4.247401815,7.076725327,-0.611602121,3.339252592
2.344075553,1.357142947,3.712501901,0.187320295,-3.5504313,2.158261889,-3.523935597,-2.302297491,-5.113160605,-0.314544581,-6.509104883,-4.734904949,1.721678752,5.671360566,2.202868311,-5.365983708,6.792343721,-2.23114602,2.20094048
2.600527696,0.950275928,3.966055663,-0.324123456,-3.891374985,0.762168849,-6.81353759,-4.999966325,-8.059398271,-1.256352398,-11.24916365,-8.344474558,-3.594944857,3.829943723,0.966001018,-5.398835186,7.099630057,-2.561910289,1.543497246
2.829412236,1.425887304,4.700477575,-0.754469049,-4.030788539,-0.673028583,-9.578545748,-8.079324793,-10.73579919,-2.603960316,-13.62591858,-9.103276103,-7.199679145,2.735906479,1.287328947,-4.385709933,7.78030133,-1.725867766,1.665176491
3.380817067,2.774555178,6.014029375,-0.745730252,-3.438916201,-1.598277999,-11.0280176,-10.10642857,-12.29828831,-3.567867441,-13.14650043,-7.332372005,-8.1191781,2.399756247,2.592448888,-2.952465236,8.44505002,-0.409078487,2.380397123
4.284491225,4.493506506,7.646903552,-0.064417805,-2.00925992,-1.835366264,-10.75598524,-10.11140107,-12.33743018,-3.387014317,-10.43731472,-4.419477337,-6.547095693,2.428782928,3.991052478,-1.920724068,8.649893269,0.57492763,3.112727737
5.18242938,5.83334816,9.079648347,1.289770743,-0.052625986,-1.608499779,-8.872162472,-7.985865847,-10.96772397,-1.790142406,-6.860321494,-2.133707259,-3.801755208,2.268160952,4.717655813,-1.830083859,8.073922286,0.757560338,3.23507397
5.655309111,6.289629218,9.911068372,3.13423942,2.012581876,-1.317121922,-6.019202929,-4.415234064,-8.736234165,0.837680387,-3.91278409,-1.83353533,-1.690781559,1.497664628,4.395333141,-2.694985339,6.697148633,0.203446509,2.454773218
5.626555713,5.946121662,10.17945286,5.212160182,3.957424621,-1.240711261,-3.203439226,-0.487664902,-6.457972568,3.657101562,-2.682037456,-3.902939349,-1.580556003,0.03772085,3.064527217,-4.1232432,4.856408874,-0.677841548,0.999935677
5.449102521,5.369684197,10.31070154,7.24105572,5.768779091,-1.386268004,-1.411574903,2.756234668,-5.00320889,5.790445755,-3.510850641,-7.614858676,-3.671070404,-1.817940273,1.074717138,-5.651170467,3.098540371,-1.506424626,-0.510650265
5.572913815,5.125046734,10.70365329,8.890664788,7.427530813,-1.556168662,-1.140294782,4.637963764,-5.007454348,6.704218161,-5.916976068,-11.44622345,-6.888854865,-3.533975035,-1.03450809,-7.01565283,1.888399321,-2.188478297,-1.42094072
6.087363522,5.304481298,11.30485398,9.788761693,8.698830126,-1.545136403,-2.104444521,4.971963246,-6.553491647,6.381259813,-8.76939331,-13.71642132,-9.46775677,-4.554598625,-2.624367291,-8.180691182,1.355267565,-2.882666892,-1.379834405
6.566164705,5.461504227,11.56433125,9.642167462,9.176377711,-1.30013415,-3.354735818,4.055375451,-9.013633856,5.252765899,-10.70685348,-13.31199013,-9.89486905,-4.522796983,-3.07822769,-9.167036707,1.255990888,-3.760047862,-0.46938021
6.384117825,4.997619037,10.84873186,8.430726211,8.573361014,-0.937284507,-3.798032741,2.553280323,-11.25398304,3.974003177,-10.70945379,-10.2087029,-7.69719412,-3.424372814,-2.010774177,-9.896275497,1.182537401,-4.799669829,0.912405808
5.250411535,3.669347098,8.986395344,6.512683605,7.004875839,-0.637157254,-2.827928021,1.278764408,-12.19630351,3.158531533,-8.603447737,-5.54254177,-3.651414421,-1.610878193,0.487364735,-10.22066486,0.859658285,-5.800217147,2.27838701
3.493290663,1.789385205,6.484323188,4.501892924,4.988817714,-0.524363084,-0.668060148,0.883804079,-11.43714673,3.159115555,-5.211362364,-1.144442135,0.661482025,0.316139803,3.739174523,-10.112624,0.31400355,-6.575550504,3.220900494
1.830333137,-0.032633514,4.215629219,2.945148856,3.125472125,-0.621372527,1.790351582,1.557430576,-9.503883387,3.948937136,-1.982234559,1.29138995,3.674382861,1.736209492,6.668779652,-9.815592932,-0.196214303,-7.134173697,3.462433848
0.800098722,-1.369213831,2.812849959,2.005556156,1.697795128,-0.88270526,3.533571048,2.893825308,-7.537719808,5.135091277,-0.238833273,1.011526758,4.568434225,2.275755838,8.280384066,-9.770355718,-0.411698821,-7.665468618,2.858280638
0.330677393,-2.258419471,2.247370748,1.385719742,0.517892457,-1.247350502,3.983156935,4.054486887,-6.604259829,6.111792647,-0.466099061,-1.451574042,3.558849853,1.982683371,8.191050464,-10.32386803,-0.267932976,-8.340230094,1.442757316
-0.184743071,-3.064688198,1.922956269,0.563442675,-0.845824012,-1.650822488,3.22753132,4.194885419,-7.111194179,6.314615345,-2.095398932,-4.603383638,1.644333637,1.297869896,6.87287627,-11.43483736,0.089098126,-9.10796109,-0.49082711
-1.35829707,-4.065329939,1.194504241,-0.816567588,-2.634199292,-1.99823811,1.853589392,2.949643521,-8.714770247,5.481391692,-3.935769656,-6.809828192,0.019371406,0.807577429,5.397186846,-12.6258695,0.450922703,-9.68055778,-2.395623126
-3.256788273,-5.14041534,-0.108445269,-2.667630288,-4.599418786,-2.151407003,0.578454717,0.699880555,-10.6958393,3.799616248,-4.957367231,-7.144130015,-0.510556884,0.896997722,4.794433933,-13.25278086,0.711047947,-9.727071552,-3.664585898
-5.279053134,-5.834962774,-1.554465943,-4.488484036,-6.083795844,-1.97513939,-0.047008845,-1.553884187,-12.42813421,1.85626376,-4.879932927,-5.768885175,0.171528879,1.509974725,5.428447857,-12.90916117,0.906426943,-9.11676757,-3.956303993
-6.556001066,-5.725767261,-2.445923465,-5.661765929,-6.426684308,-1.42886175,0.258640472,-2.671811012,-13.55840397,0.396113953,-4.172128497,-3.665303039,1.57077743,2.177130972,6.808428826,-11.66801425,1.123569237,-8.00497119,-3.434026487
-6.547662507,-4.764750247,-2.325334202,-5.8133732,-5.408182564,-0.635525754,1.519899316,-1.962397189,-13.85891077,-0.007800814,-3.522369743,-1.939112976,2.924323094,2.312262074,7.978706476,-9.98306984,1.3809492,-6.694235559,-2.698934509
-5.373385183,-3.308675656,-1.263651277,-5.006525006,-3.421921157,0.137641797,3.499059525,0.434995225,-13.06270089,0.78212526,-3.242416244,-1.178535075,3.600006247,1.597141395,8.221148078,-8.335483815,1.608939257,-5.397637045,-2.404166836
-3.652173676,-1.831268277,0.244749103,-3.679602171,-1.272266072,0.591613781,5.659652987,3.57981516,-11.00009029,2.398628762,-3.088014498,-1.250667773,3.361004113,0.206230254,7.573672109,-6.904736995,1.742242686,-4.109879718,-2.798172452
-2.028064653,-0.583740172,1.639461903,-2.40369283,0.255172606,0.536905919,7.228344213,6.16423695,-7.994642738,4.133775006,-2.608849926,-1.5837274,2.411689665,-1.277944287,6.792409455,-5.511753161,1.822792555,-2.689178259,-3.539008754
-0.775199654,0.510548406,2.607466789,-1.616734401,0.778625218,-0.023416849,7.471216773,7.135942262,-5.095907546,5.265314105,-1.685568077,-1.656773503,1.250046581,-2.204812264,6.784440468,-3.858080735,1.995403655,-1.063639752,-3.94020734
0.24106286,1.670872454,3.156061765,-1.459764174,0.456586561,-0.91608044,6.106900855,6.198738503,-3.734164947,5.391541489,-0.759160644,-1.337207173,0.415870908,-2.231794736,7.921021453,-1.85298194,2.380051377,0.631392128,-3.478087333
