Channel 1 - P4,Channel 2 - O2,Channel 3 - P8,Channel 4 - T8,Channel 5 - C4,Channel 6 - Cz,Channel 7 - Fz,Channel 8 - F4,Channel 9 - Fp2,Channel 10 - F8,Channel 11 - Fp1,Channel 12 - F7,Channel 13 - F3,Channel 14 - C3,Channel 15 - T7,Channel 16 - P7,Channel 17 - P3,Channel 18 - O1,Channel 19 - Pz
-3.593180914,-11.05845799,-23.66555881,-31.97741104,-20.40011006,-25.82011067,-42.4923824,-32.97946742,-32.78901489,-33.72198991,-30.72082045,-24.02506486,-27.08274328,-22.50416876,-26.2288484,-19.2986126,-13.20987763,-27.47277758,-20.01154695
-18.25238962,-25.25632546,-29.39096222,-34.08695759,-29.29030563,-28.09259232,-34.38445076,-31.22237918,-28.27504649,-35.80324241,-23.81729998,-23.30632882,-28.14907557,-27.84920723,-26.47514343,-30.13055892,-23.61316604,-28.45144848,-28.73021203
-25.10037967,-28.90046771,-22.88689459,-22.42538632,-25.7597022,-18.46763324,-11.55262107,-15.47240181,-9.761129642,-22.67381348,-2.558978045,-10.81041782,-17.23697569,-20.53102943,-16.76825801,-31.13041199,-23.04453826,-19.23462695,-25.65430446
-20.13125091,-19.85321249,-8.306416215,-4.71862527,-12.11713109,-2.666391873,12.02169936,4.623430016,12.31877714,-2.675518933,21.05083722,7.549462237,-0.667629302,-4.907819178,-3.426396186,-21.94769556,-11.30335218,-4.968859817,-13.05459633
-7.466552121,-4.489440706,5.296270207,8.421167396,3.17657583,10.05368845,23.24470972,17.73507391,26.14557057,12.50721822,34.0366304,21.85017823,11.82346109,9.504230453,4.954591501,-8.998310675,4.436854058,6.442635991,0.96986934
3.942402872,7.161856048,10.39794911,10.82014729,11.48714247,13.3618562,18.68424239,18.56843412,26.55474095,15.9662981,31.23179452,25.10515488,13.92740095,14.75723821,3.806031241,-0.683653384,14.83819865,9.701853258,8.225111232
6.978057095,8.680712733,5.988841982,4.339072127,9.77336487,7.86331264,5.84040163,10.70418731,17.81347962,9.648100326,18.20930418,18.05200583,6.938649931,9.822454105,-4.29322146,-1.431483369,14.92779973,5.181369354,5.922006599
1.237951676,1.394501154,-2.475456442,-3.611252075,1.955083639,-0.161297997,-3.56221755,2.782126448,9.35333272,1.615443439,6.424995289,8.153660034,-1.81440437,0.635540892,-11.99777621,-9.002830457,7.061073013,-2.26664958,-2.042176548
-7.404768571,-7.485811404,-7.757086389,-6.263230802,-4.78959932,-3.978991076,-2.682411942,1.402283839,8.125790918,-0.906336623,4.525123317,3.678664532,-4.900951395,-4.924356647,-13.03554008,-16.82463387,-1.614528493,-7.365670198,-8.649947733
-11.81755479,-10.84881591,-6.280597397,-2.392654008,-5.617166373,-1.367305419,5.965853089,6.403245936,13.64983489,3.007328228,12.46227622,7.522355457,-0.385230258,-3.027239111,-6.832878881,-19.21023341,-4.834504037,-7.960502053,-9.139264344
-9.004750373,-6.886271317,-0.187013111,3.660208078,-1.149955753,4.38741309,13.65046062,11.93133303,19.37466808,8.157638846,22.57272267,15.50442126,7.165599515,3.75046082,1.576172883,-15.31182593,-1.479205928,-5.517800981,-4.036767033
-1.745516602,0.367474549,5.193532219,6.32599283,3.933416548,7.80666194,13.03971776,11.93076053,18.80270227,8.413332781,26.23250487,20.22398887,10.77053957,9.205644536,5.954284167,-8.975016578,4.61505321,-2.780346926,2.146928675
4.368591495,5.058604614,5.98149937,3.600184916,5.223386703,5.832992434,3.959910658,5.300200126,11.1349596,2.284815544,20.57344488,17.1659309,6.744269792,8.826176431,3.801893597,-5.077372103,8.568293815,-1.016565234,5.036709412
5.65759689,4.422583338,2.623202419,-1.606608629,2.089462422,0.00138498,-7.038246592,-3.40759469,1.884698001,-5.773049363,10.14044701,8.151004,-2.511820102,3.255563109,-2.089969324,-5.596190824,8.522215561,0.729786173,3.789701666
2.908026725,0.57108914,-1.078059837,-4.337790936,-2.313328642,-5.272395568,-12.36994031,-7.975435001,-1.796470008,-9.206695367,2.704051097,-0.417409524,-10.61754975,-2.676589037,-6.38839298,-8.517921615,6.578457464,4.042555711,1.190652035
-0.010200083,-1.927374797,-1.55311221,-1.954709071,-4.133191802,-6.495614007,-9.357801008,-5.627391882,2.951355502,-4.934651913,3.035268358,-2.794359099,-12.24488963,-4.202235398,-5.663026783,-10.11016173,6.252542498,8.979900015,0.779170518
0.146881019,-0.224259753,1.548185782,3.730402968,-2.125423353,-3.716656823,-1.703408388,0.969501776,12.36882997,4.050585667,9.669147697,1.748800008,-6.962395357,-0.450836326,-0.804131325,-8.317990369,9.01755959,13.51582646,3.695744132
3.301202927,4.523378767,5.386607739,8.149843955,1.591337778,0.012867549,4.190915918,6.205074804,19.08914743,11.09230523,16.83936617,8.820820939,0.95648391,5.183364935,4.288631435,-4.367137195,13.01852129,15.12159287,7.876251815
6.507885279,8.480683067,6.651246725,7.826582363,3.699776664,1.520838201,4.531039634,6.172555699,17.87480106,11.13930199,19.46846942,12.79765279,6.209361499,8.139866902,6.22138976,-1.428758244,14.8952973,13.00616095,10.02477332
6.831433266,8.611701843,4.417939701,3.056316508,2.656056869,0.097718357,0.625288888,1.55242271,9.445700289,4.509466841,16.91448191,11.27277256,6.413308764,6.438737112,4.659478475,-1.752840029,12.88142937,8.926136885,8.454170937
3.931401141,5.16528279,0.709848989,-2.663107711,-0.139298085,-2.320355842,-3.084848028,-3.42672604,-0.448104043,-3.754028109,12.66416407,6.485462053,3.258466332,1.974298261,1.940479036,-4.827657174,8.360127386,5.783613236,4.348768488
0.15078521,1.152201058,-1.517090917,-5.694968093,-1.825741284,-3.225330201,-3.249860734,-4.746561597,-5.641350749,-8.114502106,10.76412062,2.901117456,0.371470724,-1.460881659,0.513769865,-8.029980334,4.582936481,5.230877388,0.552934455
-1.747732986,-0.46469674,-1.016712334,-5.0837996,-0.732217554,-1.829295668,-0.275861746,-1.783413303,-4.016890788,-6.748569293,12.34278748,3.312492581,0.072498157,-1.474420858,0.764409088,-8.997337941,3.814273535,6.388686362,-0.859814827
-1.021256177,0.747734959,0.812294823,-2.863517057,2.189970361,0.433138238,2.623674768,2.582082381,1.541111525,-2.450607908,15.09182574,6.795420034,1.800588247,1.162068001,1.129806417,-7.556811273,5.476902783,6.787750907,-0.088855622
0.596115224,2.645782497,1.386677019,-1.893008284,4.313424169,1.442304966,2.715979359,4.667534648,5.99835617,0.106810994,15.75355352,9.972297276,3.221380002,3.587370924,0.109350697,-5.604134985,6.86864629,4.676404314,0.967235524
0.675531426,2.715553505,-0.643490463,-3.310102536,3.686595085,0.404326052,0.211971882,2.976565573,6.154167859,-1.819446199,13.10594803,10.12541421,2.643014396,3.55545677,-1.983768467,-5.215809558,5.696857607,0.652926322,0.631710533
-1.620401038,0.400856348,-4.196050121,-5.785878231,0.66785966,-1.517001421,-2.219057896,-0.988593511,2.56678541,-7.271525305,8.793142849,7.305536698,0.436959844,1.294464217,-3.292686558,-6.778534545,2.126416999,-2.795511666,-1.083076696
-4.816633373,-2.521570777,-6.757378309,-6.997684102,-2.518727924,-2.419545583,-2.186678231,-4.44473033,-1.705033721,-12.92164278,5.515191011,3.760966922,-1.664175051,-1.000644396,-2.41141507,-8.770030065,-1.427374325,-3.416441232,-2.686960882
-6.526494909,-3.714728723,-6.589468194,-5.79858629,-3.77710792,-1.498572388,0.107602945,-5.772386739,-3.989279236,-15.93611094,4.48098139,1.535502639,-2.472635727,-1.374246396,-0.074481566,-9.266969816,-2.476406348,-1.112843533,-2.744043899
-5.616363179,-2.470518057,-4.160706104,-3.125439808,-2.851005268,0.22736675,2.103508034,-5.513953765,-3.918449795,-15.82360349,4.524933438,0.636400612,-2.510403635,0.090972623,1.238097114,-7.734209324,-0.616383145,1.988437322,-1.237962272
-3.171775166,-0.313308726,-1.610778724,-0.992862058,-1.301476913,0.930326752,1.350329446,-5.297339129,-3.015198446,-14.00445886,3.588457711,-0.554893697,-3.329825971,1.476834183,-0.438548374,-5.487053859,2.21716269,3.336720269,0.446232078
-1.467448103,0.455876952,-0.838766726,-0.66756055,-0.917426168,-0.262776094,-2.131684774,-5.974393464,-2.769527544,-11.99458606,1.031989654,-3.174652332,-5.713596403,0.939639803,-4.508067008,-4.476038295,3.526913963,2.045471605,0.816699955
-1.95022568,-1.123173471,-1.959667083,-1.730823523,-2.087088961,-2.405189366,-5.768516491,-6.820836555,-3.195425645,-10.13785404,-1.482452807,-6.234927948,-8.562133228,-1.491207848,-8.002235983,-5.541895693,2.420883003,-0.498907418,-0.392640532
-4.059835598,-3.821348058,-3.43792034,-2.770872582,-3.579386987,-3.556068443,-6.678095259,-6.465962424,-3.123769992,-7.96255588,-1.418707448,-7.159669956,-9.635877096,-3.874606012,-8.033483302,-7.703103179,0.266664178,-1.945814869,-2.045231051
-5.870198105,-5.357069067,-3.654078685,-2.896300309,-3.824094826,-2.535289825,-4.197868716,-4.51605958,-1.724441604,-5.485679794,2.183219031,-4.13886444,-7.572995609,-4.091569084,-4.408599869,-9.06265926,-0.654309277,-1.004526604,-2.67377319
-5.870662371,-4.436314536,-2.417836702,-2.573208162,-2.424386986,-0.01473525,-0.4443676,-2.208879374,0.366120512,-3.874434868,7.494712136,1.833865648,-3.363994685,-1.769808359,-0.014498528,-8.477769669,0.788803807,1.552791717,-1.782481268
-4.241907376,-1.855936886,-1.079830714,-3.030557297,-0.49696706,2.030729007,1.544913725,-1.413150215,1.454384924,-4.6151527,11.10478459,7.217184109,0.131048184,1.325687303,1.516557167,-6.509383675,3.63318846,3.67554961,-0.221995583
-2.533208962,0.262026167,-1.21501798,-4.881173308,0.423046589,2.015492036,0.401789231,-2.894603066,0.356461256,-7.937477547,10.68425177,8.472255452,0.341822207,2.775216038,-1.076879203,-4.863667848,5.761824634,3.814649082,0.630011753
-2.140734113,0.34752831,-3.123788642,-7.335414727,-0.157461873,0.082743355,-2.511669091,-5.491397565,-2.365017092,-12.10720173,6.856034101,4.860101142,-2.941243409,1.551100462,-5.509836022,-4.881901917,5.798050509,2.128682775,0.085730772
-3.035364625,-1.323839751,-5.502497186,-8.788088817,-1.240484413,-2.059591839,-4.41029399,-7.02071116,-4.679154078,-14.47613507,2.699580157,-0.863626062,-7.317844704,-1.142263682,-7.816793927,-6.426007942,4.241601825,0.164727931,-1.321203074
-3.876981994,-3.008527479,-6.539795879,-8.235707259,-1.310402435,-2.616541411,-3.51461152,-6.14956516,-4.681821823,-13.53028011,1.336859629,-4.481826856,-9.570922679,-2.921081905,-5.71675625,-8.087210424,2.893098627,-0.556866867,-2.385774295
-3.331158339,-3.098130411,-5.425600507,-6.185553712,0.182711763,-1.182607387,-0.459576354,-3.568665103,-2.127066705,-10.15968805,3.629738405,-3.438566768,-8.04191677,-2.217741023,-0.589670198,-8.447723888,3.173343053,0.269085759,-2.282996162
-1.317378063,-1.452654667,-2.942938635,-4.186292753,2.212360705,1.032779711,2.446945381,-1.415077673,1.417761947,-6.965630646,7.826022654,1.452427902,-3.704268798,0.488098167,3.664389942,-7.235524548,4.886780623,1.759504482,-1.162943774
0.959285522,0.688524282,-0.679771369,-3.394410987,3.021756598,2.338105752,3.317973593,-1.437868225,3.891541445,-6.122484708,11.26721616,6.979017178,0.807680343,3.182523872,3.933506336,-5.386162852,6.502485512,2.901010288,0.16101055
2.171716954,2.017084424,0.374028505,-3.496053083,1.68489797,1.98846147,2.226474918,-3.49912754,4.375897649,-7.598494405,12.56130036,10.2134202,3.277879209,4.039093006,0.547473269,-4.048055979,6.621201709,3.547662882,1.021861869
2.101182976,2.391537626,0.586222337,-2.995210979,-1.012241462,0.671943621,0.908248714,-5.691232273,3.679520557,-9.251857213,12.38197711,10.62273803,3.366039268,2.84461243,-2.98456137,-3.494675079,5.25319762,4.420525709,1.397482884
1.775063807,2.842546642,1.174147507,-0.640248697,-3.166827951,-0.272268438,1.045263926,-5.938897088,3.458637952,-8.706756193,12.39232569,9.980698521,2.398115454,0.987202746,-2.911874918,-2.931647848,3.760555834,6.177097309,1.678121034
2.395868116,4.386279711,2.949278539,3.280655791,-3.324839855,-0.09884375,2.754253707,-3.70313223,4.703809777,-5.400621573,13.4499341,10.41374502,1.91516649,0.157350862,1.654839546,-1.337598731,3.561255904,8.507859777,2.036778833
4.079385555,6.804164609,5.46074359,6.949087878,-1.666889606,0.779923244,4.595113934,-0.382687001,6.884049899,-1.091402374,14.77466858,12.43657917,2.362672749,0.967012626,8.075272526,1.452994411,4.802820665,10.17353127,2.112614715
5.599288265,8.572070814,7.277153563,8.364426705,0.190656998,1.352544475,4.967013981,1.830967874,8.39724699,1.531753927,14.76887949,14.65459951,2.98987282,2.632472423,12.41990993,4.407970622,6.207244763,9.992519685,1.368701562
5.40838214,8.056692047,7.123584272,6.899755636,0.577928096,1.079486637,3.541342059,1.609308108,7.863540917,0.900650572,12.64105663,15.21016223,2.842340256,3.843822223,12.62523022,6.001750283,6.21252315,7.884311676,-0.227220893
3.032551217,4.933632258,4.877734889,3.768582684,-0.860677484,0.437076389,1.458122296,-0.690399619,5.178238451,-2.406284549,9.291656241,13.51588135,1.785145634,3.925560119,9.884156964,5.357690455,4.381246075,5.00741215,-1.919663023
-0.417008867,0.573033666,1.617339844,1.053175194,-2.94764691,0.440627935,0.222286236,-3.544422862,1.55912194,-6.360368709,6.645600019,10.68840486,0.595274259,3.258742162,7.218395524,2.873489086,1.835191314,2.848790826,-2.654190457
-3.085442762,-2.950015872,-1.234008364,0.14803001,-4.015236096,1.629508929,0.407211949,-5.485670958,-1.306377851,-9.113736132,6.047049793,8.391552978,0.124850064,2.714130978,6.638664843,-0.143945975,0.356217862,2.063983097,-1.967526136
-3.843165948,-4.371382675,-2.884176193,0.887823115,-3.265548843,3.488290251,1.34772858,-5.947062447,-2.271088563,-10.12118682,7.163212671,7.274429153,0.419982021,2.758109306,7.442979962,-2.464921994,0.953014809,2.075521428,-0.473129972
-3.11592935,-4.018055968,-3.498433585,1.955111741,-1.312996692,4.849932485,1.992610131,-5.188893404,-1.211353137,-9.965986126,8.358385089,6.505287014,0.678972945,3.107219058,7.094554816,-3.711978902,3.111350737,1.740148151,0.557371858
-2.393481236,-3.282988733,-3.751939451,2.058882425,0.447229318,4.903066491,1.992962248,-3.686585541,1.144904701,-9.357168692,8.175929028,4.817532648,0.096023012,3.190419213,3.804127922,-4.361307808,5.301233546,0.443168307,0.223263743
-2.895453894,-3.360449715,-4.144861117,0.824019935,0.992589621,3.871701614,1.950588747,-1.746086507,3.698542602,-8.426396361,6.60374806,2.038179139,-1.225821912,2.868862188,-1.53142873,-5.108805554,6.22647368,-1.366833511,-1.225695949
-4.572458107,-4.370150781,-4.705374307,-1.24842026,0.340001314,2.753485325,2.631911761,0.317632634,5.396126385,-6.970079892,5.030186688,-0.401030347,-2.192243043,2.637961234,-5.766348008,-6.229473278,5.733601239,-2.6402113,-2.537202989
-6.264189136,-5.538839462,-5.226264341,-3.477154716,-0.74081398,2.379488807,3.985501049,1.833646376,5.502012787,-5.21663096,4.97219433,-0.541300915,-1.604675998,3.08506133,-5.954603723,-7.450579864,4.693824149,-2.706928001,-2.427543845
-6.786326826,-6.111204055,-5.649483359,-5.549666066,-1.553315636,2.675470062,4.990311649,1.893444726,3.83807839,-4.131984057,6.713097618,2.337782159,0.742227718,4.147388073,-1.72859915,-8.326595387,4.109189039,-1.855021637,-0.574821219
-5.931374,-6.057009738,-6.136870339,-7.420665995,-2.014924108,2.799181281,4.540780864,0.056002875,0.984699803,-4.762840549,9.015608508,6.843354182,3.729404762,4.956238474,4.358603183,-8.671157806,4.312511257,-0.998391481,2.171515445
-4.522375161,-5.939811432,-6.767712091,-8.818316107,-2.468620366,2.004826103,2.543758981,-2.977003926,-1.79438682,-7.162018835,10.10685259,10.32945475,5.672683684,4.520802151,8.734015842,-8.63793707,4.923535851,-0.78372046,4.493085347
-3.560759396,-6.170725211,-7.240550132,-9.052052679,-3.071461495,0.412719522,0.155028401,-5.505312956,-3.111923331,-9.991226139,9.055415385,10.84009122,5.562394774,2.689378472,9.327447876,-8.448575283,5.457763506,-0.990881917,5.58977451
-3.312666963,-6.453384796,-6.975570531,-7.489568029,-3.456620017,-1.042636224,-1.134031824,-5.928101684,-2.32103902,-11.36475122,6.400600796,8.541559124,3.776179881,0.494650592,6.733918601,-8.114280135,5.900628892,-0.781865559,5.640407796
-3.169344177,-6.001462553,-5.599129433,-4.315340178,-3.049234142,-1.446083615,-0.767483077,-4.008609916,-0.090016406,-10.33964708,3.608524441,5.479335667,1.720482004,-0.523375695,3.31754765,-7.461721718,6.67212613,0.450087156,5.435644577
-2.352349076,-4.32781066,-3.367326664,-0.770906066,-1.730057664,-0.750343191,0.40022013,-1.212847635,1.87231234,-7.763937896,1.927000554,3.902521612,0.745033649,0.46992242,1.260481605,-6.425849671,8.053868779,2.433508297,5.599993113
-0.750088222,-1.830552503,-1.089109677,1.53551548,-0.161152988,0.146453365,0.870760009,0.290988703,1.913846153,-5.663567634,1.617449414,4.559547261,1.218237366,2.850765563,1.216287511,-5.281520999,9.688976087,4.177139109,6.111096932
0.913479375,0.417060586,0.440670716,1.793398779,0.616552444,0.178869914,-0.17513951,-0.741952407,-0.37264665,-5.611843515,2.077262968,6.311525212,2.427320717,4.901208533,2.42325194,-4.54212854,10.69189125,4.785902073,6.473957289
1.717983448,1.510606209,1.016186073,0.637028729,0.012888634,-0.945310817,-2.191379193,-3.682182338,-3.791327581,-7.453940397,2.537762995,7.244968716,3.239536923,5.041204188,3.763524794,-4.589395594,10.31371368,4.187053866,6.28415173
1.369554482,1.423172358,1.087852579,-0.364915459,-1.587075029,-2.482277792,-3.822846761,-6.537301383,-6.360451432,-9.491860205,2.605490758,6.24029162,2.892954987,2.97265794,4.5985764,-5.371841556,8.572621247,3.11853239,5.600452542
0.427229164,0.927556548,1.260033406,-0.034502009,-3.095070209,-3.295837706,-4.168283952,-7.511406108,-6.727579125,-9.977229429,2.229987932,3.698893647,1.327232562,-0.136942105,4.745039076,-6.448910556,6.279297539,2.420990566,4.799861231
-0.268786136,0.811799695,1.682193063,1.371706697,-3.579934044,-2.826689116,-3.568832438,-6.334601368,-5.100377485,-8.617313582,1.34319976,0.979890933,-1.018940829,-2.521887744,3.991913155,-7.328263031,4.431560289,2.305372225,4.123896037
-0.41335168,1.124577485,1.898733882,2.31941528,-2.987166339,-1.529376,-3.189974145,-4.306729365,-2.976087211,-6.7916644,-0.258048303,-0.776807298,-3.561805969,-3.016874611,2.003898694,-7.77482841,3.506646354,2.260355584,3.416023083
-0.520344933,1.154180001,1.298913085,1.27457081,-2.117668361,-0.413072254,-3.794368245,-3.106075497,-1.912667361,-6.31323285,-2.537905812,-1.356123807,-5.707260293,-1.684915576,-1.109523932,-7.825714892,3.241045612,1.643412063,2.330289242
-1.40607353,0.154383015,-0.252400525,-1.947397545,-1.919526783,-0.128425237,-4.872083598,-3.435379693,-2.34634827,-7.838909099,-4.734868771,-1.206710657,-6.783861928,0.487805855,-4.207493868,-7.561481916,3.025176367,0.358588869,0.795871829
-3.359806457,-1.871679801,-2.197840167,-5.903026205,-2.729579717,-0.431054552,-4.987368995,-4.637106147,-3.388819883,-10.31669959,-5.416417918,-0.674764923,-6.10050263,2.437578894,-5.417197373,-6.935246564,2.499783356,-1.037011201,-0.753545359
-5.784775987,-4.077005961,-3.702160777,-8.569655891,-4.098157188,-0.485479804,-3.086595187,-5.494925222,-3.702489612,-11.91676957,-3.319006877,0.392195069,-3.3359492,3.679704858,-3.43905924,-5.884572191,1.81328611,-1.890761602,-1.659563191
-7.656299155,-5.472395109,-4.332296807,-8.866250242,-5.271913132,0.299132966,0.397382086,-5.39224522,-2.667392495,-11.58572802,1.546166845,2.271698081,0.968904688,4.343987717,1.134945525,-4.617502317,1.367335989,-2.120147145,-1.600790957
-8.384181886,-5.786240701,-4.386550195,-7.40134023,-5.827543387,1.682092085,3.677892267,-4.750870271,-0.857901024,-9.851182929,7.452109231,4.676888579,5.334774985,4.749958357,5.789063917,-3.717427715,1.364631589,-2.317849521,-0.911282123
-8.289710503,-5.68712356,-4.573447337,-5.861865396,-5.87257195,2.787809615,4.946507329,-4.407992819,0.523269419,-8.216435244,11.72977295,6.584385082,7.987898628,5.024998567,7.689287447,-3.831528439,1.618622589,-3.162929528,-0.332700115
-8.260655438,-6.152938567,-5.334673053,-5.590326929,-5.698788359,2.896220592,3.804641829,-4.602389959,0.717346397,-7.752880752,12.38242771,6.933248902,7.930155886,5.104012521,5.820721461,-5.117941432,1.780493658,-4.685427307,-0.399181912
-8.903120922,-7.554250677,-6.431098991,-6.541711704,-5.319562355,2.100007572,1.585655563,-4.59465687,0.061481343,-8.176364542,9.444499474,5.658219917,5.680040416,5.003008342,1.904780909,-6.940780107,1.709908205,-6.108459236,-1.004804118
-9.970645241,-9.287260221,-7.167742639,-7.443285039,-4.4175462,1.232395607,0.298664356,-3.328849028,-0.299499907,-8.201689977,5.083196973,4.076320987,3.058684353,4.984558688,-0.799336346,-8.18090859,1.58895174,-6.478404671,-1.546304692
-10.59570088,-10.29532439,-7.046245847,-6.949532385,-2.78917687,1.135514941,1.086108087,-0.538589246,0.650662436,-6.79139848,2.311755138,4.113796421,2.074153844,5.377217232,0.022092312,-8.02374388,1.665659407,-5.550559306,-1.50681272
-10.11223688,-10.00951412,-6.241116333,-4.783185635,-0.830608351,1.929474733,3.460751878,2.754668455,3.017569914,-4.133170472,3.165882394,6.866382371,3.653704685,6.202217157,3.932156385,-6.623285646,1.91297777,-4.115342893,-0.939135253
-8.714357385,-8.855308599,-5.457176816,-1.935211607,0.494985357,2.928252616,5.877561827,4.882237078,5.975878441,-1.480930931,7.547971243,11.63851081,7.111651952,6.998868713,8.095345225,-5.061403887,1.991023383,-3.412262604,-0.402479997
-7.3407559,-7.863366923,-5.291519855,0.163025367,0.308103745,3.258376954,7.055761656,4.809617965,8.442620732,-0.061495508,13.43381746,16.29598212,10.69557083,7.085558973,9.518966225,-4.559443046,1.59397096,-4.089870193,-0.419134417
-6.874451226,-7.732623238,-5.676882132,0.736090918,-1.429506194,2.613947273,6.894733671,2.959034181,9.827406672,-0.08263413,18.18872296,18.71952472,12.76145302,6.088294332,7.36619101,-5.525564437,0.84871484,-5.603350491,-0.969454062
-7.36784899,-8.190513779,-5.913795158,0.122061401,-3.740554572,1.483130945,6.279337203,0.84951155,10.26436729,-0.729987728,20.05985227,18.2430213,12.71512541,4.29423849,3.485765024,-7.196695295,0.331881506,-6.594882664,-1.508756593
-7.985601689,-8.231487829,-5.272911827,-0.701592968,-5.275710545,0.676216044,6.085223076,-0.146283089,10.23799374,-1.085276015,18.93227042,15.96858965,11.11810314,2.504649293,0.806470947,-8.183284926,0.61092148,-5.96603865,-1.49591405
-7.721886912,-7.030840769,-3.643559423,-1.021651863,-5.299226335,0.609698363,6.350166195,0.130331338,10.02314988,-1.04792319,16.03803537,13.76406542,9.032935221,1.473539738,1.000979208,-7.505575354,1.687785891,-3.755678183,-0.931468547
-6.26703908,-4.729475864,-1.669425326,-0.925768129,-4.209962842,0.992399633,6.328673184,0.619353513,9.443541502,-1.381528808,12.99420276,12.79706817,7.213013418,1.365734325,3.35015637,-5.31637501,2.872415811,-1.10129468,-0.379953726
-4.275492562,-2.398090629,-0.266378037,-1.076805046,-3.154778472,1.166071795,5.2874288,0.052685459,8.105615548,-2.870354422,10.86224868,12.77890992,5.738762177,1.654487862,5.633235912,-2.762604411,3.266506104,0.661954494,-0.430328624
-2.820333685,-1.206629652,0.055137502,-2.014162555,-3.051955244,0.753562444,3.245518464,-1.928254639,5.84733451,-5.42468063,9.757864402,12.45165273,4.249688998,1.526937749,6.132651041,-1.125814885,2.489522168,1.000954028,-1.089673251
-2.525226621,-1.506709987,-0.496278359,-3.630409798,-3.842595179,0.010559527,0.988569786,-4.493919876,3.015203598,-8.009853149,9.113878507,10.82463319,2.447164909,0.479355107,4.978272944,-0.92854811,1.029692267,0.480560472,-1.697293954
-3.12033679,-2.589856975,-1.253258045,-5.240804936,-4.590013808,-0.422373748,-0.585986965,-6.351587108,0.392627734,-9.470507097,8.317452976,8.109517078,0.420555482,-1.328240713,3.756991599,-1.665575942,-0.10179028,0.18744188,-1.484811368
-3.768930028,-3.288047853,-1.636846063,-6.11251965,-4.321399655,-0.111082629,-1.123125524,-6.765358312,-1.108992587,-9.455711539,7.286751115,5.629463722,-1.398949905,-3.170936028,3.892123254,-2.279025173,-0.141837929,0.842006005,-0.303938433
-3.831816982,-2.876631589,-1.505300666,-5.960058713,-2.881200112,0.791959922,-0.86396493,-5.973854104,-0.783589313,-8.556552285,6.633360195,4.849045503,-2.516486804,-4.188466668,5.335558761,-1.922477532,0.865933025,2.352385498,1.144353111
-3.382325373,-1.532275096,-1.06506489,-5.02337163,-1.076243608,1.709988437,-0.141243338,-4.730058953,1.620662447,-7.540532831,7.2974826,6.33619767,-2.620730067,-3.837435201,6.732838909,-0.416676216,2.174252144,4.098716735,1.826421067
-3.046476142,-0.032783783,-0.527969951,-3.759249377,-0.014331947,2.163479325,1.079319793,-3.508639238,5.734228067,-6.466179751,9.844188013,9.419961,-1.671314557,-2.120848525,6.82428125,1.849962199,2.971665005,5.57251094,1.221291252
-3.358437275,0.958535091,0.105501481,-2.486877539,-0.220441566,2.148705772,3.080817782,-2.18090762,10.51615632,-4.607233581,13.84716521,12.67903351,0.11270475,0.456092338,5.721252933,4.337577386,2.986092757,6.738707114,-0.234216743
-4.231900531,1.382627946,0.947694046,-1.281248677,-1.27230279,2.035510388,5.799819576,-0.435928165,14.46609357,-1.335148553,17.81289709,14.7715147,2.264866535,3.110132108,4.843577266,6.658952431,2.551739394,7.832830329,-1.497297203
-5.007394654,1.685863665,1.976403035,-0.112121156,-2.218333494,2.120737938,8.409371438,1.547921693,16.20110726,2.875925091,19.82470862,14.99064215,4.103001783,5.068014691,5.554689754,8.56527724,2.146525684,8.886108224,-1.772698974
-5.002215523,2.322767717,2.958201472,0.998162821,-2.367446638,2.299383633,9.642486173,2.948858921,15.21735509,6.386792795,18.61224363,13.30646934,4.892457035,5.838128916,7.736829887,9.776344867,1.878620043,9.524860868,-1.133865734
-4.057248549,3.36312997,3.66420671,1.975782246,-1.761105272,2.185935054,8.723827275,2.931750853,12.34768464,7.528358254,14.38198638,10.11000973,4.170314174,5.391362867,9.626839677,9.960820615,1.410366754,9.289492795,-0.384119353
-2.615629859,4.529673597,4.162455706,2.808269646,-0.970167353,1.565209826,6.127594274,1.524589081,9.447287879,6.03906101,8.799377673,6.004745055,2.060378138,4.158539405,9.126714392,8.967464101,0.365789132,8.171316276,-0.300593343
-1.311409638,5.543393661,4.849286215,3.586390484,-0.475484594,0.715092395,3.418864729,-0.127495729,8.320837308,3.495339366,4.045758559,1.756060597,-0.690159225,2.793591358,5.504813333,7.08460245,-1.200386983,6.810360217,-0.942257145
-0.471227059,6.376646631,6.117970475,4.391905821,-0.233748495,0.251652629,2.187860597,-0.503622426,9.537629844,2.206439758,1.545494253,-1.770969133,-3.068379763,1.791877517,0.054949344,5.005024525,-2.749130786,6.087418967,-1.633901113
0.034593573,7.152576727,7.935450934,5.160128615,0.187727011,0.60449222,2.901773556,1.089825448,12.01760395,3.39373952,1.248544924,-3.864015707,-4.3516571,1.198460903,-4.833243578,3.415173715,-3.692827512,6.409422877,-1.627722636
0.509623287,7.814803817,9.733276443,5.717998805,1.075756866,1.603920644,4.629825283,3.88066545,13.80538354,6.194761181,1.977723238,-4.323872449,-4.470779163,0.633600332,-7.410416939,2.490187071,-3.9195156,7.294960648,-0.84064402
1.028986816,7.931397119,10.75839992,6.022918847,2.176019496,2.588157158,5.887538941,6.176015942,13.55707232,8.421318352,2.546655652,-3.620828404,-3.912529774,-0.351760135,-7.700057265,1.71149448,-3.909207878,7.623836167,-0.00381539
1.305151652,6.864427093,10.60063338,6.371731247,2.838130865,2.969989642,5.894921678,6.716906544,11.64512144,8.518702729,2.748227496,-2.617588092,-3.257931172,-1.852834855,-7.185713338,0.188523288,-4.320798365,6.344495048,-0.087197347
0.928733128,4.177200104,9.426029624,7.295967178,2.590233611,2.765932603,5.184883734,5.743655193,9.995230361,7.083752942,3.417776364,-1.988454358,-2.746581668,-3.472359653,-7.430715784,-2.738770419,-5.420891437,3.062807851,-1.500269492
-0.261849954,-0.073723952,7.699484502,9.114463517,1.621992048,2.598131007,5.057690184,4.864716866,10.71071806,6.583334675,5.540150928,-1.768762877,-2.216969751,-4.605572163,-8.82128785,-7.05630685,-6.872204811,-1.902801425,-3.753984507
-2.025497215,-5.390640804,5.65859558,11.47122885,0.716707419,3.140372681,6.372114129,5.791540395,14.49128311,9.387734002,9.178946113,-1.408424981,-1.427190664,-4.92350842,-10.39470658,-12.07606569,-8.060288271,-7.895411895,-5.84931173
-3.89735602,-11.12351069,3.056423826,13.29923598,0.649902654,4.484771993,8.726342169,8.937061985,20.03828129,15.67231064,13.17216553,-0.299443283,-0.420123051,-4.631531078,-10.73587339,-16.79515205,-8.632205181,-14.2504742,-7.023808512
-5.509008885,-16.68304958,-0.537579818,13.36414834,1.539902744,5.993770754,10.72543281,12.98890969,24.88410683,22.91813481,15.89444564,1.651974881,0.426451325,-4.25217876,-9.089648175,-20.28529782,-8.727716093,-20.24835954,-7.206968284
-6.754384343,-21.49643016,-5.115419999,11.06395356,2.6888457,6.782730719,11.08025684,15.77520126,26.9870954,27.48371156,16.45961406,3.872638891,0.708180254,-4.104182226,-5.813841903,-21.86820102,-8.688685886,-24.84795372,-6.840327468
-7.687545291,-24.84997973,-9.867365824,6.900905032,3.05295062,6.420968441,9.575667445,15.71868772,25.88062987,27.06202648,15.32594421,5.487585445,0.34454358,-3.954932024,-1.987984017,-21.12110844,-8.550055456,-26.69855846,-6.308998317
-8.306723165,-25.93775683,-13.48112197,2.249246331,1.977643536,5.243419465,7.094349017,12.7688015,22.58962469,22.14877468,13.75239396,5.864718888,-0.401755445,-3.212986217,1.301265252,-17.93599895,-7.850966112,-24.72678162,-5.561075907
-8.46923685,-24.25292952,-14.93955643,-1.432257895,-0.355593297,4.010129558,4.735490758,8.203245703,18.5505671,15.47341637,12.5506652,4.882726104,-1.292058715,-1.557082076,3.366073966,-12.73373924,-6.018943117,-18.99718399,-4.270593822
-8.021332462,-20.07461206,-14.19305468,-3.378842391,-3.067522681,3.230147388,2.857584895,3.622228019,14.52997128,9.965467504,11.23272167,2.76262499,-2.515476497,0.535296553,3.85545758,-6.641096907,-3.024324115,-11.11520599,-2.352746088
-6.992799568,-14.59622015,-12.1513759,-3.76031155,-5.144158211,2.761614686,0.908967226,0.019854468,10.41932165,6.899150192,8.373064816,-0.27498456,-4.676619319,1.88931179,2.575405753,-1.302972672,0.305321955,-3.647597394,-0.287863899
-5.638800259,-9.453387579,-9.995566894,-3.297026854,-5.986958361,2.045594022,-1.823029955,-2.411939197,5.941694469,5.553297491,2.984197607,-4.120200795,-8.2510152,1.401735394,-0.423676768,1.774638176,2.673077211,1.21354569,1.115106104
-4.273301744,-5.892983264,-8.373069303,-2.633381706,-5.604550089,0.75428251,-5.248585152,-3.823161997,1.494255461,4.392469462,-4.210951441,-8.515304195,-12.89860712,-1.072603039,-4.532021866,2.024340983,3.160019421,2.842949916,1.347019048
-3.057867511,-4.158176491,-7.116027877,-1.966168594,-4.425909218,-0.748553775,-8.199833441,-4.209203296,-1.730668268,2.587578676,-10.74105215,-12.71692497,-17.25000707,-4.441376903,-8.474598078,0.187091846,1.86315538,2.349121719,0.653322669
-1.958036244,-3.533469118,-5.651333954,-1.133172626,-2.974185627,-1.580951694,-9.143049159,-3.397664163,-2.515510165,0.60363505,-13.77228926,-15.52949529,-19.48275393,-6.999813334,-10.76724693,-2.103634926,-0.200517356,1.591757852,-0.127709992
-0.904881922,-2.988538826,-3.675231222,0.038184261,-1.646253802,-1.03552672,-7.315546947,-1.458570131,-0.620555271,-0.455721351,-11.95731163,-15.87062187,-18.38951638,-7.547898055,-10.56675104,-3.316748003,-1.846471416,1.816769132,-0.243026339
0.020213521,-1.906868019,-1.473024851,1.484574121,-0.660667022,0.793129988,-3.353155525,0.990043501,2.873521498,0.033615061,-6.369985167,-13.52280785,-14.20266478,-6.173072119,-8.288709384,-2.929361336,-2.517764694,2.952410149,0.355305159
0.594066483,-0.367367727,0.368884229,2.944683388,-0.078455635,2.995607073,1.100346885,3.015618689,6.22614656,1.693843698,0.182207741,-9.462484495,-8.555781947,-4.10806941,-5.442833741,-1.612872614,-2.503356979,4.030907961,0.992502383
0.672612827,1.138787141,1.537221476,4.159672373,0.194403654,4.485085987,4.475400668,4.025863302,8.196033886,3.595411856,4.954187366,-5.408696301,-3.567078213,-2.784544942,-3.723514544,-0.601095519,-2.478077676,4.25784482,0.881702286
0.40642979,2.208300505,2.279904177,4.992034819,0.400634911,4.773323963,6.195071789,4.25826331,8.783247422,5.122273957,6.851672141,-2.828321816,-0.660440401,-2.818405059,-3.988848501,-0.748839418,-2.835410009,3.752028052,-0.160947106
0.203180961,2.783176549,3.129469504,5.369162887,0.837846724,4.26075987,6.768744416,4.597027151,8.9960074,6.374371803,6.726569763,-2.08825888,0.087325747,-3.688919475,-5.841806865,-1.983454499,-3.408921343,3.338480307,-1.514233154
0.418573383,3.011162599,4.33521273,5.189659622,1.66943607,3.82638222,7.103280057,5.789434928,9.881098585,7.76115322,6.325886416,-2.370731876,-0.311360503,-4.302314487,-8.034720382,-3.493573623,-3.76926737,3.659193724,-2.23588372
1.036570739,2.957076016,5.56282417,4.379275946,2.764382171,4.077853844,7.668131205,7.694285864,11.61444967,9.263717393,6.822917814,-2.408373984,-0.654282138,-3.937366235,-9.29971331,-4.407439419,-3.738749741,4.478602026,-1.816393426
1.649667658,2.522287204,6.168260307,3.089598218,3.721326491,4.87763127,8.169684895,9.221635555,13.33290999,10.16230773,8.041441694,-1.490445509,-0.414053984,-2.812098671,-8.988587779,-4.381077384,-3.590020494,4.860365508,-0.567273657
1.79605091,1.659874497,5.799348073,1.806432943,4.101462172,5.501475929,7.893127311,9.070551558,13.75431839,9.554551631,8.809735898,-0.011603632,-0.000324403,-1.866102024,-7.209403012,-3.686231029,-3.736754195,4.068232314,0.660895549
1.372110974,0.615586409,4.748756496,1.142632153,3.710680032,5.255989953,6.332716741,6.707780387,12.04178588,7.197258287,7.976121508,0.798958094,-0.337270456,-1.996390551,-4.615023792,-2.859739404,-4.242122499,2.348721259,1.159661325
0.73793859,-0.142011311,3.697249493,1.372250088,2.71199646,4.033477372,3.59083396,2.82060716,8.277573711,3.85356771,5.215703949,-0.274026699,-2.140495467,-3.382069382,-2.171372944,-2.312511258,-4.66408979,0.828112185,0.858713501
0.389301108,-0.327295565,3.058635614,2.067270928,1.483682054,2.38238334,0.317241437,-1.106806608,3.30922807,0.755922048,1.094970299,-3.624088123,-5.405044835,-5.393280127,-1.005819055,-2.224361602,-4.435289919,0.550398378,0.256590212
0.468817993,-0.215093913,2.536033429,2.208952331,0.351278063,1.093905147,-2.650194415,-3.760918592,-1.789109853,-1.390724781,-3.458409895,-8.575566457,-9.385599975,-7.07298265,-2.142098729,-2.693689304,-3.442509142,1.489763686,-0.081886003
0.565877044,-0.563800922,1.338811226,0.797470809,-0.58194495,0.672850712,-4.638746367,-4.789089958,-6.225118416,-2.994590166,-7.724044194,-13.77965013,-12.99709638,-7.7544888,-5.967209624,-3.845629794,-2.23979235,2.453079497,0.022576384
0.026598268,-2.032072817,-1.082466522,-2.446495893,-1.388834502,1.086153241,-5.331906665,-4.883104851,-9.731430585,-5.216130858,-11.38523479,-17.92458303,-15.34851879,-7.360499722,-11.66746696,-5.689577982,-1.638971167,2.039884276,0.341018901
-1.45544224,-4.52862253,-4.416312211,-6.819880929,-2.144167439,1.89866192,-4.843374958,-5.190762017,-12.57049831,-8.943215382,-14.39834918,-20.31733844,-16.13097021,-6.26790277,-17.19370492,-7.852860663,-2.002151579,-0.112966577,0.587979524
-3.471224056,-7.076090919,-7.552054223,-11.02788813,-2.814906036,2.597256339,-3.740258567,-6.546926044,-15.40795759,-13.95547598,-16.86198215,-21.07747877,-15.71922672,-4.975646967,-20.11992927,-9.540394483,-2.87283546,-2.8767386,0.751159735
-5.093858263,-8.385764036,-9.308093121,-13.93090796,-3.315406322,2.828712511,-2.945963314,-9.036012185,-19.06522482,-18.95712688,-19.07879716,-20.95274149,-14.98060983,-3.882072322,-19.06593523,-9.920111949,-3.315610969,-4.412868429,1.062568181
-5.512616614,-7.736124172,-9.229452148,-15.08580792,-3.638981129,2.445118013,-3.39316812,-12.05490325,-24.11434623,-22.41511817,-21.65677254,-20.92118851,-14.86924784,-3.26389776,-14.72731726,-8.719450861,-2.706925965,-3.596158822,1.658460601
-4.598102052,-5.458036648,-7.796340817,-14.72476611,-3.888925297,1.455193235,-5.473292119,-14.6860887,-30.42721226,-23.49576764,-25.34960844,-21.75396249,-15.95098049,-3.311649031,-9.630437378,-6.533044535,-1.294290541,-0.917426416,2.301769428
-2.944768799,-2.632130562,-5.902479604,-13.30285623,-4.141981781,0.01796277,-8.614955556,-16.09348959,-37.00310246,-22.39293781,-30.57736985,-23.67288294,-18.06852378,-4.059776225,-6.593383679,-4.496946242,-0.017493644,1.890225476,2.491448884
-1.375217422,-0.256524637,-4.093989214,-11.0816005,-4.277952533,-1.517819321,-11.40191126,-15.79927684,-42.37458416,-19.92928194,-36.96667816,-26.22354403,-20.35573886,-5.24597177,-6.897043295,-3.496594762,0.273916023,3.209141964,1.902848466
-0.334672345,1.419442441,-2.241938765,-8.111500392,-3.987917393,-2.653528777,-12.32838843,-13.85558547,-45.50888258,-16.91910981,-43.3781528,-28.46166609,-21.66819557,-6.306861547,-9.4916755,-3.509932987,-0.468280687,2.775080245,0.755994581
0.329591795,2.863356947,0.100909179,-4.550616648,-3.025149907,-2.947614061,-10.77535048,-10.91773746,-46.63930617,-13.8688278,-48.55461723,-29.43689734,-21.2441173,-6.651666462,-11.84255574,-3.636915179,-1.477619858,1.797464931,-0.265159213
1.066927921,4.618539519,3.042952872,-0.918647065,-1.509446752,-2.298733422,-7.516932666,-8.120440214,-47.34237895,-11.14069422,-51.9841465,-28.76368428,-19.21189738,-6.085403628,-11.78007914,-2.831174874,-1.874457328,1.892987821,-0.525860644
2.118552585,6.669631664,6.04582725,2.04589701,0.013969217,-1.080777002,-4.332728588,-6.662676597,-49.6476959,-9.20322506,-54.31866016,-26.93747098,-16.6015875,-5.040754822,-8.959123441,-0.76302808,-1.463314924,3.733469554,0.037550697
3.278202049,8.39840641,8.275366432,3.854950699,0.887751463,0.024179048,-2.955518091,-7.213231003,-54.73196621,-8.539207258,-56.98992003,-25.14601489,-14.82105321,-4.36138798,-4.877370138,1.888710181,-0.911532573,6.516113767,0.85119871
4.113879442,9.157891516,9.295580295,4.648985438,0.825004034,0.412170766,-4.103711723,-9.494323221,-62.16902328,-9.214380723,-61.29551262,-24.63904322,-14.92328371,-4.730448439,-1.56809498,3.962011527,-1.1341538,8.656721286,1.176688818
4.412947595,8.921519048,9.459351111,5.114214711,0.165313746,-0.113387044,-7.282288099,-12.40564882,-70.35356275,-10.56932037,-67.64924523,-26.0438875,-17.13699867,-6.161918847,-0.102669531,4.72566742,-2.415243058,9.094076574,0.735056065
4.4168378,8.393907468,9.62034325,5.976383168,-0.347571301,-1.310212474,-11.41650566,-14.71200657,-77.79738298,-11.48842799,-75.53092109,-29.08294526,-20.93041732,-7.967805761,-0.082873724,4.42913291,-4.045011067,8.119091347,-0.051256735
4.622200244,8.461059223,10.41271059,7.494145531,-0.130486915,-2.759466519,-15.72277614,-15.86293103,-84.25420977,-11.18342661,-84.06697428,-32.87360992,-25.48030823,-9.253116797,-0.383868509,4.038846827,-4.819649847,7.074210054,-0.411969097
5.336172621,9.460811318,11.74366118,9.372278087,0.773602722,-4.179239664,-20.08179721,-16.33826101,-90.72570317,-9.879665313,-92.65958265,-36.56726295,-30.14420353,-9.563490566,-0.347273971,4.390718213,-4.007945311,7.215658076,0.117958882
6.401070565,10.92086123,12.94961203,11.12283382,1.716973518,-5.527836885,-24.67351091,-17.22517054,-98.31924861,-8.761788749,-101.1100614,-39.84434577,-34.60032642,-9.18044109,-0.325843313,5.472125546,-1.978761596,8.696947027,1.299537934
7.342534107,11.99265007,13.45763494,12.49265809,1.954682758,-6.849059594,-29.3176989,-19.32296685,-106.9255977,-9.11378194,-109.2123771,-42.92149443,-38.6532598,-8.843799903,-1.153772433,6.431752606,0.040274973,10.48862467,2.382596864
7.801554212,12.18803846,13.33227356,13.54204255,1.235443649,-8.055546345,-33.22453646,-22.46306007,-114.8964804,-11.29416027,-116.3249141,-46.12826278,-42.00077125,-9.143332014,-3.116291587,6.30534499,0.880436408,11.25529516,2.726290897
7.851914415,11.76522233,13.20086656,14.33622726,0.000912971,-8.892406205,-35.4610029,-25.57757611,-120.0962727,-14.38224116,-121.4596654,-49.44260174,-44.25460529,-10.07351772,-5.421367299,4.855005997,0.283176036,10.44366974,2.327769041
7.916104634,11.44047671,13.63432993,14.63008587,-0.958879088,-9.132240826,-35.74210579,-27.45549871,-121.5219032,-16.80765364,-123.9176303,-52.36960817,-45.21798654,-11.0833181,-6.682942253,2.834937268,-0.979173503,8.70873808,1.825987857
8.364945554,11.71429192,14.57331106,13.96141365,-1.103279944,-8.810675504,-34.8001053,-27.57701133,-120.1381584,-17.46392418,-123.9195674,-54.2320082,-45.12509057,-11.52933996,-5.991551379,1.470990743,-1.759465369,7.377760312,1.989309148
9.172078174,12.43480713,15.35229346,12.15621445,-0.512704183,-8.254991119,-33.91414421,-26.37455021,-118.1695318,-16.41043933,-122.5920365,-54.59916507,-44.53649299,-11.12509813,-3.628749721,1.568693396,-1.396010103,7.420541653,3.111391151
9.934523327,12.98154974,15.31572445,9.774619348,0.231128384,-7.847850696,-33.92499338,-24.76525095,-117.3670763,-14.63391025,-121.1960524,-53.50373238,-43.89264838,-10.03057701,-0.82457906,2.934873784,-0.095511556,8.741311108,4.790372888
10.22937988,12.87160595,14.4568341,7.973136315,0.507575475,-7.726722791,-34.55639086,-23.40502008,-117.6602776,-13.14832328,-120.1822477,-51.32257824,-43.083178,-8.574914613,1.182521129,4.521132907,1.39081959,10.30010435,6.234890603
9.975545113,12.20945795,13.47057614,7.741419788,0.062453384,-7.697497935,-34.65328273,-22.30999839,-117.3294553,-12.25028767,-118.8844038,-48.50096555,-41.45247144,-6.926491726,1.94240874,5.13364531,2.436563423,10.90900512,6.824270626
9.482225863,11.56712895,13.1459482,9.085122603,-0.93178931,-7.452933769,-33.18289601,-21.12034793,-114.5852784,-11.54846519,-116.1712111,-45.39572887,-38.33414441,-5.036479478,1.811172163,4.166057852,2.967172677,10.07108272,6.488305459
9.167618623,11.42746478,13.64396576,10.88972766,-2.110230186,-6.900349512,-30.17861446,-19.68627989,-109.2492491,-10.64607595,-111.5521591,-42.33292208,-33.74198529,-2.891309811,1.315990899,1.873653446,3.345150595,8.271330836,5.662229871
9.229266569,11.73283414,14.33637543,11.69645474,-3.154921103,-6.288044116,-26.82400309,-18.37282604,-103.1048363,-9.752799733,-105.7916868,-39.71454122,-28.64554484,-0.795841921,0.57694934,-0.89602384,3.913145124,6.58761761,4.918682887
9.564585295,11.97045209,14.38069591,10.83825325,-3.823535312,-5.995337239,-24.57864244,-17.76031544,-98.56534375,-9.585977718,-100.4450542,-37.93856789,-24.52807712,0.636186871,-0.634687204,-3.225267789,4.653081895,5.969437455,4.588600553
9.974011132,11.70263149,13.52398329,9.007695931,-3.834342079,-6.165850155,-24.04873947,-18.0048438,-96.70416507,-10.61319672,-96.62640405,-37.09929428,-22.47664203,0.843333967,-2.313851677,-4.531668446,5.242233626,6.689598823,4.62179124
10.39887162,11.0142382,12.3894903,7.736415978,-2.862481523,-6.527048528,-24.52447736,-18.47905411,-96.25365711,-12.3518534,-94.00673775,-36.71870453,-22.45022382,-0.245049006,-3.792594236,-4.690115988,5.385363531,8.265115438,4.711035999
10.92735374,10.4202311,11.94411696,8.158468828,-0.787884875,-6.588061129,-24.55701971,-18.10078747,-94.42551568,-13.45414436,-90.91512147,-35.83349871,-23.27976695,-2.067090769,-4.0214671,-3.949557406,5.065669668,9.794908779,4.524814825
11.56007157,10.2960667,12.58677135,10.05620596,1.979464968,-6.065391436,-23.09557467,-16.14690296,-88.94965524,-12.62879816,-85.54830924,-33.51398127,-23.42796843,-3.730989416,-2.413786482,-2.798417443,4.485643927,10.4403863,3.883936327
12.00099247,10.3750448,13.66958083,11.98771981,4.461646344,-5.160240989,-20.26291109,-12.87988427,-79.75836471,-9.675604182,-77.38295184,-29.50981042,-21.97954455,-4.551212755,0.506545623,-1.836810553,3.803772942,9.781822067,2.823430516
11.74681444,9.834000633,13.91431942,12.40759476,5.559568409,-4.418038052,-17.17249663,-9.418826221,-69.03736504,-5.738357874,-67.68638801,-24.54057764,-19.17344366,-4.423379522,3.320913903,-1.612202733,2.972774334,7.930535253,1.568840819
10.46313615,7.960201275,12.40869644,10.85951397,4.758410578,-4.262084261,-14.98977628,-6.903514381,-59.66260016,-2.500692758,-58.71357168,-19.9615799,-16.14022896,-3.781624746,4.710693433,-2.403814052,1.860276153,5.417650617,0.458934769
8.326997258,4.834946572,9.346892017,8.255954205,2.560437055,-4.594906884,-14.03793474,-5.614559881,-53.27558555,-0.944544098,-52.20384729,-16.99263212,-14.08684737,-3.214931543,4.414140084,-4.061334233,0.520484984,2.94427441,-0.18414526
5.99322764,1.406386225,5.88352323,6.031339531,0.239919891,-4.828159257,-13.66327778,-4.789838679,-49.4450011,-0.688812963,-48.32274761,-16.03521384,-13.53388469,-3.062704297,3.31204359,-6.05339815,-0.694498205,1.091010459,-0.218490339
4.156502547,-1.162308228,3.227827471,4.906341081,-0.978910102,-4.347657539,-12.9122713,-3.327285785,-46.41969706,-0.464613211,-45.81097595,-16.54145165,-14.10620753,-3.27698607,2.559815712,-7.759747554,-1.354516473,0.091328091,0.206119081
3.056734805,-2.341440047,1.75154766,4.318865734,-0.738110421,-3.042693116,-11.40679001,-0.827585371,-42.71542686,0.663663608,-43.13318455,-17.48325015,-14.92783235,-3.587179711,2.539072851,-8.832349865,-1.339941387,-0.23189241,0.699989759
2.35788935,-2.562078616,0.85357181,2.992563324,0.263155383,-1.455882664,-9.680111324,1.882665039,-38.21572604,2.359002997,-39.65637353,-18.03526479,-15.24548537,-3.765579789,2.574814532,-9.356043386,-1.033541433,-0.323454674,0.868109741
1.520152366,-2.749342442,-0.349140884,0.13477327,0.852286756,-0.41229405,-8.719663262,3.22523166,-33.99415458,3.165530233,-35.93335965,-17.97274629,-14.81374862,-3.761086058,1.672924186,-9.677385941,-1.08712831,-0.613287496,0.587630495
0.346774831,-3.480061121,-2.150651326,-3.774493462,0.2836794,-0.413451192,-9.12000218,2.038046165,-31.16569011,1.669840617,-32.94896062,-17.56182088,-13.83846811,-3.636646348,-0.411301038,-10.04467968,-1.904660611,-1.257300555,0.110850919
-0.782338593,-4.504660312,-3.980427922,-7.276499554,-1.244143043,-1.274862154,-10.53950357,-1.430341713,-29.8172665,-2.25280431,-31.04247574,-17.13537131,-12.6422059,-3.435275992,-2.794097309,-10.3721,-3.255822669,-2.061544673,-0.113632918
-1.211499533,-5.03761645,-4.94169922,-9.055197255,-2.830009652,-2.285813537,-11.87603589,-5.467079017,-28.89162127,-7.120343503,-29.45501952,-16.75837834,-11.38951963,-3.137719761,-4.184688867,-10.34123805,-4.355717586,-2.630233391,0.222597764
-0.590985899,-4.53131847,-4.651294331,-8.942791849,-3.626767937,-2.749518311,-12.0007368,-7.867701739,-27.03918337,-10.74248563,-26.89945663,-16.24428914,-10.08564676,-2.748713455,-4.097664728,-9.756896651,-4.374996571,-2.626488675,1.067713055
0.77142731,-3.224903118,-3.617240408,-7.996356747,-3.474384069,-2.471051371,-10.49097965,-7.281604937,-23.6732843,-11.67824346,-22.68834707,-15.44423597,-8.783252067,-2.399036252,-3.442832448,-8.838525533,-2.998250814,-1.968662122,2.092110879
2.103032178,-1.978889805,-2.829240243,-7.637148179,-2.918164945,-1.829489227,-7.86355529,-4.026996404,-19.38226953,-10.17767867,-17.48567731,-14.49843324,-7.745926415,-2.326870198,-3.879694887,-8.168806193,-0.619976835,-0.852378961,2.990091875
2.736858187,-1.561012812,-2.952606153,-8.608868775,-2.663665191,-1.421804202,-5.216619389,0.134294276,-15.4507553,-7.947398636,-13.03408914,-13.79940136,-7.368074973,-2.722295094,-6.415095035,-8.310449766,1.931509034,0.376083326,3.707926456
2.563351503,-2.03932265,-3.855821328,-10.59029708,-2.981550018,-1.596074715,-3.588959963,3.059384959,-12.95435002,-6.962650021,-11.0036383,-13.69032817,-7.877656511,-3.56117307,-10.43708255,-9.391468451,3.890272515,1.381642494,4.36722699
1.983154902,-2.822006601,-4.868586282,-12.67133206,-3.569277905,-2.237736198,-3.455476346,3.411550394,-12.13305176,-8.203464704,-11.78067884,-14.15580907,-9.054395675,-4.580324549,-14.0547608,-10.99491481,4.896144964,1.943593987,4.953140078
1.438564812,-3.275560385,-5.48271369,-14.160623,-3.935406036,-2.927381367,-4.592136037,1.271000835,-12.4016793,-11.1546187,-14.06260476,-14.76095738,-10.21436596,-5.429898243,-15.50511796,-12.44024254,5.001823825,1.988694215,5.102792769
0.979251901,-3.319986858,-5.810032678,-14.98906076,-3.905854376,-3.283740283,-6.273335638,-2.08255597,-12.80637518,-14.28465414,-15.54236063,-14.88128874,-10.52835343,-5.888154392,-14.45704634,-13.22723036,4.457764927,1.594229191,4.286210438
0.269068056,-3.435256516,-6.364455223,-15.4396246,-3.772297997,-3.195715259,-7.617687684,-4.947178588,-12.47468954,-16.03827591,-14.2149525,-14.03921383,-9.49404621,-5.972982144,-12.11821898,-13.29997147,3.524294968,0.977909114,2.314746823
-0.987920683,-4.082584642,-7.397439373,-15.59510788,-3.962803651,-2.794618186,-7.917011695,-6.020507997,-10.79105403,-15.63574669,-9.458378222,-12.11043893,-7.251807156,-5.872880275,-10.08293241,-12.96242742,2.444251531,0.441403476,-0.253724747
-2.631257332,-5.114225019,-8.462971451,-15.12829322,-4.570515575,-2.260516154,-6.866423901,-4.865114536,-7.39428595,-13.26252101,-2.257974802,-9.302197435,-4.517135086,-5.764597109,-8.950039038,-12.57112673,1.495914521,0.238962944,-2.257442602
-4.066557645,-5.776687217,-8.691294588,-13.6698192,-5.207818564,-1.674194785,-4.659316282,-1.920185179,-2.249315439,-9.73287051,5.45760671,-5.989816397,-2.150473691,-5.662877745,-7.928260327,-12.28545482,0.962926738,0.41973912,-2.651188915
-4.738936444,-5.360860786,-7.578386042,-11.37455832,-5.344813327,-1.036892262,-1.917777107,1.79152629,4.141802347,-6.011323228,11.86257051,-2.568750641,-0.63555655,-5.407320631,-5.759780677,-12.05476057,0.979704631,0.765084383,-1.309674228
-4.622845031,-3.921103912,-5.570604551,-9.069380832,-4.829766276,-0.395368082,0.539610151,5.053364985,10.62419846,-2.908294596,16.01520179,0.59765484,0.180266692,-4.78293051,-2.110776482,-11.78351555,1.393742372,0.912706051,0.749814911
-4.244688965,-2.367843632,-3.84759151,-7.740512586,-4.101570509,0.087542901,2.011146467,6.81465387,15.66922141,-0.99016741,18.00463721,3.176446234,0.887798071,-3.686988535,1.852870055,-11.47084907,1.822392312,0.61978447,1.998960308
-4.171689169,-1.770798366,-3.402419999,-7.758009846,-3.867214417,0.206947984,2.160280532,6.485208403,18.06225719,-0.547470599,18.53998674,4.894529118,1.976832016,-2.243956114,4.274531944,-11.19020545,1.914884525,-0.021525181,1.481455444
-4.413270015,-2.43117429,-4.175378896,-8.530853363,-4.498608996,-0.128149539,1.08300172,4.142080471,17.61512064,-1.499526236,18.36665943,5.622108931,3.337690739,-0.810914976,4.134745451,-10.96644282,1.618376836,-0.602086657,-0.464210758
-4.308762775,-3.537480101,-5.014392044,-8.943065858,-5.670637325,-0.801818585,-0.800031871,0.580512205,15.38126873,-3.29307886,17.90449581,5.446018148,4.201753877,0.137081808,2.162692307,-10.71833983,1.208284363,-0.664486059,-2.425438412
-3.070267964,-3.755713503,-4.562891982,-8.236364456,-6.571714366,-1.545536852,-2.913639152,-2.878754861,13.13967006,-4.968879181,17.26700239,4.653316356,3.637502565,0.214288767,0.294981436,-10.3543591,1.037295886,-0.03105541,-2.944085616
-0.552262617,-2.306077643,-2.380493115,-6.599918071,-6.531601626,-2.090659297,-4.65659426,-4.84394785,12.42333172,-5.498123849,16.53039487,3.614867556,1.303649406,-0.648313784,0.093972224,-9.927929347,1.214618915,1.065275801,-1.578182998
2.432422356,0.359512247,0.625692914,-4.97722085,-5.552582989,-2.294755761,-5.49418142,-4.442228218,13.70125636,-4.285721263,15.96529514,2.638973773,-2.090091337,-2.077084603,1.454129487,-9.670423172,1.502865298,2.153505723,0.810537324
4.585191428,2.850611475,2.830592012,-4.283445813,-4.309724498,-2.163568968,-5.099097668,-1.786593958,16.21919888,-1.569268696,16.00637818,1.878905693,-5.028465938,-3.355458104,2.706267248,-9.827140353,1.53082156,2.858747293,2.739669269
5.050305253,3.869620334,3.084487272,-4.72711654,-3.63016577,-1.796224354,-3.560087735,1.956507252,18.55526554,1.554033986,16.95975039,1.32340056,-6.07648426,-3.773800809,2.052727209,-10.4250922,1.132115493,3.124787395,3.196367789
4.053745745,3.144175553,1.520881884,-5.798662345,-3.884001883,-1.334029835,-1.513642742,5.027164715,19.49743139,3.56135858,18.677956,0.84325106,-4.837539148,-3.073289504,-0.863400044,-11.19472235,0.49996963,3.156398291,2.280579283
2.72021438,1.530309242,-0.631935733,-6.85624421,-4.764801815,-0.946975083,0.023370535,5.918205033,18.71033038,3.240798101,20.50257693,0.265754013,-2.28176665,-1.692612172,-4.56939192,-11.7425924,0.014508025,3.164390701,0.949194625
2.209377235,0.26626542,-2.020055318,-7.696060816,-5.587825686,-0.812579653,0.184800011,4.209671641,16.86896447,0.38997662,21.6138204,-0.51795333,-0.132109797,-0.582410876,-6.876611385,-11.83538002,-0.097592283,3.16887155,0.151677465
2.873429729,0.046743248,-2.090794176,-8.544564794,-5.808802237,-1.031727437,-1.108767837,0.916355502,15.28511274,-3.892548292,21.62194271,-1.409902394,0.330093727,-0.621956789,-6.564383106,-11.53634868,0.046477449,3.049624723,0.107605587
4.105836229,0.672722395,-1.262065378,-9.5037912,-5.330119524,-1.510005452,-2.882195748,-1.928214145,15.28610823,-7.544548777,20.99711149,-1.991376155,-0.788431796,-1.988385577,-4.242980567,-11.06359451,0.122812146,2.784300092,0.289879795
4.956396936,1.474414609,-0.311198345,-10.05510931,-4.403364343,-1.922186621,-3.53313004,-2.314699717,17.63279806,-8.443127611,20.9623135,-1.570078328,-2.001148207,-3.935499616,-1.712261208,-10.50802293,-0.068507149,2.615463743,0.03784185
4.946845207,2.024952666,0.385348988,-9.223309797,-3.309648508,-1.85721674,-1.803763931,0.612589834,22.1693832,-5.495531289,22.79993693,0.52008414,-1.448705577,-5.203534067,-0.39062946,-9.702337418,-0.404046796,2.932090999,-0.801233711
4.384341334,2.461360571,1.070240026,-6.393516611,-2.158880522,-1.096532981,2.317978698,6.003756849,27.80495369,0.644443071,26.95097418,4.451833721,1.780972393,-4.83569873,-0.139178154,-8.406695662,-0.577118524,3.915140611,-1.77444738
3.9425111,3.155396926,2.139854618,-2.103659953,-0.972021135,0.170248762,7.431702431,11.70469342,32.86097922,7.699610798,32.50553143,9.551458418,6.948461361,-2.850259527,0.555253968,-6.669313635,-0.460488797,5.246023441,-2.314837547
3.934717689,4.112103807,3.495809374,1.96106733,0.107301276,1.388829579,11.4831943,15.42171726,35.71925394,12.79402303,37.49557077,14.37033783,12.06247548,-0.280957678,3.210713957,-5.015928644,-0.342869449,6.173005311,-2.330468794
3.964554978,4.729494685,4.374695898,3.929557785,0.764162462,1.95767698,12.96869002,15.96707318,35.5445584,13.91097004,39.89268124,17.26618423,15.07506947,1.464601805,7.922105619,-4.23192634,-0.777697402,5.952697972,-2.327115992
3.283494246,4.204713338,3.869791254,2.997611623,0.742263037,1.607054563,11.75921395,13.82756774,32.72991777,10.98416887,38.72649893,17.22315112,15.0195696,1.488334585,13.01592161,-4.852809088,-2.125639701,4.360107225,-2.94125322
1.539440731,2.25286279,1.717680328,-0.001307194,0.15122563,0.554738151,8.993051831,10.72182442,28.77095493,5.952608358,34.6291408,14.42006307,12.35075202,-0.081330561,16.04596676,-6.762762177,-4.166111935,1.875420298,-4.305430532
-0.76140691,-0.511229498,-1.337814677,-3.180086406,-0.485835404,-0.682502553,6.180260148,8.46614466,25.56425846,1.690120233,29.4742557,10.16968067,8.396017732,-2.262921875,15.36432625,-9.245739712,-6.1262145,-0.603820882,-5.827665778
-2.515780166,-2.900919494,-3.947825016,-4.898275702,-0.578426788,-1.666364963,4.234092612,7.908229086,24.48637939,0.413550472,25.36500583,6.247339214,4.472470894,-3.901348609,11.13903007,-11.46401527,-7.139195985,-2.305045851,-6.603124864
-2.815951437,-3.949912551,-5.029998158,-4.7795736,0.033949006,-2.294117032,3.138062996,8.605262318,25.77872384,2.51727817,23.61658739,4.022237211,1.358808738,-4.335075142,5.191927697,-12.97393827,-6.788444188,-2.967671013,-6.11930462
-1.619278218,-3.521420577,-4.431445846,-3.704317081,0.874629767,-2.734330963,2.394225889,9.38191194,28.58283148,6.520271428,24.31023439,3.905393647,-0.625642827,-3.617402723,-0.091242939,-13.86036363,-5.326754655,-2.815370622,-4.659169431
0.256731763,-2.255977672,-2.89551088,-2.88214378,1.161115127,-3.124698734,1.755586301,9.297667589,31.54774632,10.10065531,26.55277478,5.370048091,-1.264288155,-2.255221742,-2.975604395,-14.41804464,-3.43656405,-2.208881813,-3.069913861
1.793759453,-0.956971623,-1.420480764,-2.828898219,0.47006417,-3.3293973,1.556207848,8.312941685,33.57361381,11.51018933,29.11545833,7.400487848,-0.338497639,-0.787926885,-3.021641247,-14.72262154,-1.766232081,-1.323439153,-2.107513418
2.526158091,0.022955795,-0.55948713,-3.074326094,-0.797705673,-3.003655821,2.35636394,7.219548817,34.22677066,10.46972751,30.98219614,8.998487418,2.040851999,0.435721976,-0.993925329,-14.5311938,-0.619146861,-0.127398496,-1.911760306
2.778576108,0.884913658,-0.187979365,-2.751273689,-1.583854263,-1.934604024,4.252120376,6.961194129,33.66359746,8.057907586,31.56042426,9.468998964,5.027407922,1.19737385,1.681007901,-13.62729561,0.017522265,1.370890022,-2.02416129
3.241713309,1.964942626,0.176599748,-1.470005022,-0.917856591,-0.361137507,6.509165554,7.889748975,32.27424545,5.803825004,30.64883894,8.483174797,7.128196176,1.275637635,3.544246942,-12.2664161,0.241015244,2.902917849,-1.877029044
4.300467524,3.256280459,0.868977568,0.304344843,1.296714261,1.038769928,7.907453842,9.494718953,30.40417329,4.681498826,28.40422136,6.098339374,6.98306133,0.48819701,3.638428129,-11.22248733,0.085599606,4.014102573,-1.291752805
5.70376015,4.355160674,1.833456481,1.660326675,4.072750653,1.541129205,7.570135941,10.75607615,28.34312668,4.666656578,25.4059221,2.841292433,4.372169675,-1.078821331,1.894037385,-11.26506335,-0.39987447,4.408045113,-0.560222887
6.827197591,4.876336696,2.786595472,2.02275141,5.91298119,0.872738611,5.627120095,10.82388542,26.47214812,5.039465375,22.66776584,-0.260885162,0.640416825,-2.904028845,-0.741387361,-12.4464679,-0.986963125,4.252016885,-0.088467518
7.248284046,4.911514388,3.544928869,1.605272299,5.780696961,-0.572871925,3.186349135,9.544975984,25.30987014,5.085732112,21.37634032,-1.924297601,-1.942206438,-4.185116323,-2.622255762,-13.84653462,-1.271007309,4.128237746,0.023290202
7.099103262,5.041640519,4.166924983,1.167666364,3.774323918,-1.978202583,1.638231822,7.525130284,25.3236526,4.640126644,22.34716424,-1.176300568,-1.563700825,-4.295649262,-2.216691588,-14.11824934,-0.929601318,4.610343124,0.056236839
6.889197693,5.826323308,4.787906896,1.340652833,1.028566914,-2.626670735,1.827666454,5.757725704,26.63398275,4.124747146,25.50435614,2.032261327,1.954159177,-3.213816722,0.928254341,-12.50854752,-0.030735826,5.786589299,0.337534018
6.978281443,7.202963135,5.350121912,2.129724666,-1.065616869,-2.321599866,3.680264059,5.100118914,28.88235663,4.149476912,29.79573331,6.629720248,7.051719396,-1.55299306,5.708221209,-9.558247925,0.928116551,7.131570706,0.820617969
7.186709733,8.360802015,5.535180284,2.99658517,-1.746865622,-1.410901622,6.457664636,5.895384218,31.41304889,5.031804369,33.70461241,10.90455261,11.48724401,-0.1259369,9.956775051,-6.855467839,1.360814297,7.859042808,0.995196323
6.899889276,8.273101531,5.003857194,3.376325695,-1.260341452,-0.447195028,9.321684038,7.877955969,33.64525847,6.581203551,36.07904535,13.45207534,13.77614461,0.630841197,11.76502621,-5.943561117,1.066075868,7.489611206,0.248095392
5.58376453,6.499545946,3.741139956,3.126741151,-0.518773343,0.217319398,11.72515787,10.32910178,35.33847045,8.244911218,36.7275204,13.9834769,13.97314499,0.911499019,10.79322311,-7.190811902,0.41790935,6.180199242,-1.60960501
3.274053329,3.611359001,2.184693969,2.530165218,-0.363646923,0.592638919,13.41075924,12.37105858,36.54578496,9.449728835,36.37229963,13.42826531,13.2997357,1.274208092,8.59552794,-9.513840889,0.066421877,4.554278988,-4.092074242
0.631566787,0.876273655,0.992878937,1.922592212,-0.988974229,0.895515843,14.20093343,13.29450681,37.3297429,9.882715197,36.0176899,13.23664031,13.02017009,2.093877135,7.593830832,-11.20138473,0.371398878,3.186255251,-6.285186192
-1.474754036,-0.568535647,0.619610641,1.363843642,-1.90791123,1.266356786,13.92089569,12.82895932,37.53063276,9.55536068,36.21708444,14.3587653,13.49964376,3.209117492,9.322921869,-11.21161346,1.057190823,2.18029274,-7.406860018
-2.515639733,-0.427197572,1.028572968,0.677515803,-2.4103912,1.621152436,12.58772567,11.25888301,36.82985524,8.674406175,36.7706325,16.60564055,14.13517343,4.057235555,13.18102723,-9.927357743,1.418493347,1.198481227,-7.259081109
-2.563094505,0.67346684,1.759216406,-0.211804651,-2.119290388,1.745595797,10.6535611,9.305010939,35.07680876,7.459082079,37.02338388,18.80669573,14.07864093,4.154383364,16.64007053,-8.780711339,0.934557415,-0.094376623,-6.260648894
-2.11289134,1.731050053,2.267843564,-1.030004415,-1.236386413,1.512937211,8.965080726,7.782981536,32.58855622,6.040058701,36.46276075,19.60227504,13.03917167,3.477449941,16.85236038,-9.064112402,-0.227925824,-1.565167925,-5.091918275
-1.669201994,2.070020185,2.263173506,-1.297683429,-0.344827842,1.012892344,8.3338032,7.193083187,30.12125807,4.486070247,35.11403289,18.28830227,11.47173086,2.410986584,12.57341385,-10.89265918,-1.278252568,-2.552693939,-4.257823984
-1.438771801,1.671783848,1.798868736,-0.773923064,0.035845641,0.482484336,8.993024397,7.475852921,28.47055592,2.907189598,33.44654638,15.16327225,10.06498071,1.337361885,5.068635812,-13.14380798,-1.412665203,-2.30847185,-3.875001696
-1.329418242,0.969991434,1.113128379,0.220150758,-0.196779887,0.117823372,10.38501878,8.093702109,27.9712912,1.536762842,31.92967838,11.24158279,9.07214946,0.286702435,-2.618379519,-14.39418641,-0.473422416,-0.609919271,-3.758752294
-1.165658755,0.390864806,0.405897683,0.949723908,-0.691637244,-0.057190652,11.4988552,8.393336985,28.27211305,0.712650695,30.65171353,7.63789012,8.130954225,-0.995454097,-7.509991558,-14.06527148,0.905618009,1.94845489,-3.652920321
-0.877858445,0.066602565,-0.245968952,0.822725514,-0.903177379,-0.159612526,11.54133074,8.013599983,28.56795721,0.74580769,29.32230165,5.068178465,6.728655085,-2.616189595,-8.379792267,-12.84039091,1.803306208,4.250470825,-3.397603345
-0.502612689,-0.07946674,-0.796640056,-0.095652684,-0.434988935,-0.304081882,10.44751876,7.07896611,28.13742582,1.744748587,27.62538975,3.711323755,4.850295042,-4.175542582,-6.186025075,-12.03453654,1.749037922,5.358523602,-2.957753611
-0.042530976,-0.040212073,-1.0930059,-1.058541279,0.757248517,-0.489430297,8.863533447,6.081458107,26.81624239,3.511873683,25.59193743,3.362514431,3.168588427,-4.896453153,-3.089422945,-12.46264425,1.077473799,5.123054741,-2.378991257
0.633148171,0.443730718,-0.851546892,-1.152264189,2.394564816,-0.609571234,7.653576472,5.570979684,25.09791816,5.601920671,23.66767811,3.657559057,2.554410271,-4.224492404,-0.867199316,-13.74794532,0.61366866,4.26512962,-1.758286947
1.720221723,1.746357336,0.203412005,0.048144235,4.063164878,-0.557359559,7.338415341,5.874383401,23.82265079,7.532211075,22.43234172,4.226758278,3.324119528,-2.403392827,0.134973063,-14.62761577,0.977245859,3.878035542,-1.232284454
3.28834647,4.031038319,2.137275085,2.189302767,5.411203164,-0.313541214,7.874423547,6.986088437,23.68125263,9.01726141,22.22207483,4.795520901,4.912144072,-0.469205599,0.866491343,-13.98434853,2.112424709,4.706356224,-0.92343873
5.133990331,7.026740526,4.686234337,4.408784816,6.239923044,0.049493409,8.858805339,8.614512425,24.84177982,10.05992046,22.96304639,5.293553912,6.305963092,0.44213027,2.505083178,-11.75008492,3.435047323,6.701488529,-0.831788415
6.812731571,10.09995618,7.304732993,5.908919435,6.47847197,0.42175258,9.900327533,10.28309052,26.88401267,10.82226441,24.314122,5.934676379,6.905183543,-0.026875746,5.349860396,-8.959172129,4.431729949,9.132684269,-0.764539414
7.842081826,12.56512454,9.35507584,6.383841792,6.117185035,0.691508324,10.82122152,11.43251118,29.02557321,11.37378351,25.94582777,7.136034843,7.063281495,-1.119225737,8.510283113,-6.940639837,5.144032272,11.12966084,-0.419664404
7.940524241,13.99865005,10.34718364,6.039251607,5.185369469,0.73550942,11.58254526,11.56398779,30.48533604,11.53520953,27.6930692,9.216390936,7.807801808,-1.510270658,10.57918704,-6.331140168,6.080174126,12.24388833,0.380866814
7.156356394,14.35434347,10.1293879,5.30951973,3.798802327,0.418821689,12.10745786,10.46375209,30.80739951,10.98337291,29.47173896,12.02582573,9.924178519,-0.363759286,10.73854543,-6.700055598,7.622406657,12.63762662,1.480657623
5.827803925,13.85956942,8.954938581,4.575555639,2.221652535,-0.328937501,12.24184924,8.424197223,30.02170713,9.568595721,31.08466054,14.80869883,13.14349196,1.926343578,9.443090277,-7.043269702,9.472597937,12.8069285,2.411781793
4.417818359,12.82582606,7.381523431,4.073984918,0.85234657,-1.385023843,11.89718749,6.255223029,28.58726409,7.584953577,32.13886666,16.49745665,16.11695326,3.921505236,8.149889245,-6.687678709,10.67526573,13.08957475,2.693067733
3.314525054,11.51715663,6.015858774,3.930905291,0.08624723,-2.381449622,11.18462612,4.932981531,27.13523752,5.719031288,32.17637481,16.30975471,17.23211044,4.142887121,8.261064359,-5.84478955,10.2675539,13.35234173,2.195385783
2.679824564,10.11702916,5.202766777,4.140815133,0.105508115,-2.849703125,10.329968,4.992744419,26.11393418,4.635785632,30.91244913,14.23878476,15.65331502,2.134051778,10.02534427,-5.385115296,8.049999565,13.09844343,1.264642553
2.400965927,8.741535721,4.833823908,4.453294881,0.727406336,-2.529508761,9.393291613,6.051963839,25.51643026,4.476992026,28.3811054,11.05630592,11.80862043,-1.224476014,12.20079668,-6.070122912,4.834908668,11.90456052,0.464421881
2.170984056,7.443946831,4.428985701,4.347242056,1.437292397,-1.629095037,8.074463666,6.880352245,24.87570098,4.6813997,24.88914681,7.806129616,7.012725534,-4.360209858,12.77307796,-7.913052591,1.938080926,9.83427998,0.121987597
1.678905582,6.213011586,3.48662775,3.286528999,1.627810148,-0.794235917,5.88468115,6.110064106,23.58435376,4.33832932,20.86546138,5.170004643,2.599207433,-6.079527866,10.29115914,-10.19761043,0.29409163,7.48051117,0.054529134
0.823753317,4.999260182,1.887454522,1.187567451,0.925685264,-0.731274112,2.653087626,3.194374414,21.37670436,2.877198641,16.77078852,3.187935,-0.738287499,-6.240889605,4.925941227,-12.10781571,-0.119666884,5.570175815,-0.27300244
-0.180690978,3.771744162,0.048326029,-1.273684705,-0.587378043,-1.710260375,-1.026821999,-1.046490062,18.64840509,0.591695783,13.12523773,1.508587224,-2.969701019,-5.586062984,-1.495464168,-13.40752012,-0.120028874,4.418674954,-1.266798878
-0.906634027,2.559286629,-1.331316067,-2.892573953,-2.399132544,-3.315050583,-3.872229949,-4.750107907,16.33690113,-1.435163199,10.53086129,-0.111473158,-4.283972539,-4.986987905,-6.550907037,-14.579849,-0.580969717,3.675022646,-2.797959205
-0.98315004,1.434762295,-1.778627564,-2.694642266,-3.823497066,-4.663812391,-4.614095858,-6.084112484,15.3612933,-2.016630028,9.514638349,-1.545306127,-4.71779631,-4.794396338,-8.695116401,-16.30572807,-1.72759304,2.607399355,-4.227228601
-0.360302641,0.462156548,-1.428569646,-0.723412247,-4.33308631,-4.980492387,-2.90886165,-4.395395337,15.95170236,-0.702631306,10.17942448,-2.515898156,-4.239552252,-4.793823536,-8.152939466,-18.72786535,-3.003756222,0.757773044,-4.862558471
0.63485868,-0.327318556,-0.955191184,1.785903171,-3.779675536,-4.118311797,0.221965264,-0.669927135,17.33553398,1.826295907,11.897661,-3.068126835,-3.152487848,-4.684087417,-6.628762961,-21.14093181,-3.56858051,-1.5415315,-4.482259417
1.5092958,-0.896627587,-1.073972552,3.091672149,-2.410341246,-2.651657297,2.843656449,3.014819578,18.05720755,4.108809838,13.37258234,-3.78261356,-2.303996788,-4.532797601,-6.051125676,-22.41090355,-2.982681892,-3.257334679,-3.493737111
1.928597007,-1.154908806,-1.995565749,2.068594976,-0.725259587,-1.465957669,3.243888454,4.688242662,16.79512653,4.764053691,13.19125547,-5.419071805,-2.718098275,-4.733101405,-7.250223093,-21.83049856,-1.537144781,-3.382178811,-2.601626686
1.900389562,-0.991917283,-3.275568736,-1.041627862,0.70643016,-1.148087883,1.020414471,3.565438289,13.18961465,3.279367586,10.62152582,-8.203680405,-4.808330928,-5.500306793,-9.495664303,-19.74296965,-0.008112725,-1.797282845,-2.26993573
1.67548892,-0.410529127,-4.192048671,-4.816437616,1.393717021,-1.621491322,-2.620716055,0.365274045,8.161953953,0.223436635,6.154519736,-11.36717752,-7.79648075,-6.423168714,-11.16918916,-17.41490932,0.916534258,0.427086306,-2.425665237
1.471469527,0.360381015,-4.337390936,-7.628464489,1.037869761,-2.272652531,-5.570021004,-3.230782443,3.51689593,-3.180915645,1.393254561,-13.4185213,-9.915789879,-6.578019307,-10.99979738,-16.20031469,1.073643814,1.642136687,-2.628452522
1.284802897,0.934274371,-3.916244088,-8.659165076,-0.353372898,-2.440451473,-6.057252553,-5.539232929,1.061939101,-5.755294727,-1.704101585,-13.06004671,-9.406620779,-5.216139913,-8.898089862,-16.58318386,0.826600925,0.799465948,-2.522906605
0.976156471,1.045338118,-3.485023912,-8.200554269,-2.378655605,-1.883788052,-3.629822576,-5.648748738,1.748294121,-6.856652234,-1.791964264,-10.08711196,-5.666794961,-2.483536557,-5.796954864,-17.79905324,0.703269401,-1.654820484,-2.157835619
0.546255421,0.84408634,-3.360319126,-7.103433858,-4.286838946,-0.895476503,0.708192947,-3.655679268,5.280515306,-6.436071885,1.247846162,-5.563706976,0.266141542,0.47251496,-2.736501944,-18.33014008,0.994192552,-3.912729438,-1.898710525
0.309150707,0.919302519,-3.238173104,-5.928671983,-5.237229803,-0.028166174,5.182572043,-0.415533488,10.33173783,-4.805926747,6.354825178,-1.107182689,6.2742314,2.193256016,-0.04133047,-16.94390802,1.598112656,-3.985959103,-2.039458667
0.73007793,1.922959158,-2.408973028,-4.557434464,-4.715031564,0.31064117,8.2383912,2.898069573,15.16973714,-2.418825812,11.88047211,2.17627896,10.38762775,1.919891467,2.682386428,-13.55741558,2.159943837,-1.142917373,-2.490715203
2.002580032,4.014366845,-0.433198993,-2.560153586,-2.869719047,0.077907415,9.216093066,5.184028134,18.34474744,0.179406637,16.3091148,4.278242482,11.84212916,0.151997338,5.75840261,-9.335453802,2.330612716,3.459695012,-2.841754536
3.727169024,6.564445084,2.296361608,0.07754041,-0.514419621,-0.495250846,8.414357894,5.698179379,19.15177575,2.326992067,18.72811,5.959170277,11.28453236,-1.699555567,8.63590415,-5.969743593,1.947997876,7.470018453,-2.741088797
5.037940156,8.432614838,4.639920396,2.601818602,1.287836252,-1.16595945,6.674838405,4.273627658,17.75181428,3.370607623,18.93166778,7.820461988,10.08462678,-2.322715029,9.919220912,-4.647761107,1.063994602,8.898329437,-2.240987199
5.172104781,8.69616226,5.457803222,3.906820542,1.828886078,-1.864806975,4.859277278,1.447752208,14.9861634,2.995276918,17.29107441,9.587048092,9.329422662,-1.424356099,8.376597793,-5.408619922,-0.125788087,7.408727267,-1.778453212
4.070243823,7.312342344,4.459027548,3.413815098,1.154527298,-2.66406799,3.520160285,-1.643397178,11.99223148,1.541194598,14.57110009,10.22842589,9.218045381,0.11468646,4.161506278,-7.282702877,-1.366131302,4.399558551,-1.794917327
2.499460867,5.183758996,2.458334692,1.654432633,-0.026959252,-3.600018979,2.832077411,-3.702574259,9.755921506,-0.023770154,11.74568387,8.836774337,9.190065826,0.931958454,-0.839911461,-9.053759569,-2.41322251,1.847695178,-2.329188341
1.533656821,3.532304562,0.796349461,0.001381561,-0.868854009,-4.541904138,2.674110947,-3.91403642,8.751894821,-0.606031645,9.749916396,5.533889996,8.552916098,0.175758278,-4.01102336,-10.07008454,-3.107852067,0.837015579,-2.950903843
1.750653511,3.036568154,0.350582474,-0.312156082,-0.965001457,-5.238333701,2.74249924,-2.431967847,8.815047477,0.289557001,9.145728545,1.632596917,7.066030886,-1.931981419,-3.737739107,-10.54601592,-3.439933134,0.910629679,-3.103837821
2.77370701,3.39482869,0.904859185,0.862633853,-0.566227174,-5.499902191,2.663496626,-0.354434829,9.310392596,2.11340439,9.836720261,-1.129330272,5.076147798,-4.318970879,-0.574988634,-11.20055095,-3.546315961,0.70164482,-2.56672329
3.543659842,3.647438546,1.362749506,2.430217118,-0.298961016,-5.355101561,2.132919251,0.878211531,9.52236563,3.482003323,11.05898905,-1.723433189,3.202335323,-5.829025477,3.104778455,-12.56378589,-3.600225524,-0.738475996,-1.636165313
3.130358329,2.984383493,0.617425658,2.818377373,-0.636217501,-5.046433792,1.068587362,0.318356889,9.047743774,2.989532005,11.75612935,-0.486672418,1.890635526,-5.93483384,4.782327822,-14.49236155,-3.644291828,-3.039919989,-0.880303397
1.449319142,1.379922011,-1.617053837,1.099574514,-1.550434899,-4.875460719,-0.313843884,-1.954848289,7.959642485,0.125829838,11.17130994,1.162670451,1.173704708,-4.92710427,3.537030947,-16.2378739,-3.502299132,-4.782790543,-0.682189268
-0.68190869,-0.439666595,-4.639095215,-2.360701564,-2.607565574,-5.027091541,-1.594302056,-4.947210767,6.653484742,-4.304256266,9.282376731,1.689455836,0.737831172,-3.557777517,0.544511605,-16.97822641,-2.874288569,-4.684258324,-0.960942968
-2.179931172,-1.61830088,-7.317915564,-6.166157054,-3.38723388,-5.503464166,-2.398322304,-7.407438242,5.502511957,-8.55669966,6.769384574,0.35528823,0.158217166,-2.499436422,-2.013626101,-16.38639484,-1.57369929,-2.688870554,-1.286591938
-2.498483403,-1.81864688,-8.865048394,-8.81050907,-3.849055258,-6.190592077,-2.656494399,-8.565350807,4.580537014,-10.90234912,4.525599523,-2.522163608,-0.895154774,-2.02631208,-2.708541819,-14.81609589,0.274334649,-0.03870601,-1.257070065
-1.954263125,-1.346773989,-9.200600636,-9.56553277,-4.329379525,-6.971433791,-2.685448771,-8.467270376,3.649094529,-10.57760338,3.063830751,-6.00048053,-2.562365995,-2.056229783,-1.862551087,-13.00159417,2.248986173,1.734705871,-0.796358461
-1.346264157,-0.693042317,-8.708101747,-8.758858022,-5.184076159,-7.781156564,-3.008044074,-7.752347175,2.398869458,-8.168860767,2.253337858,-9.163938375,-4.759192726,-2.386979023,-1.019779687,-11.53747243,3.872346949,2.049414522,-0.136228142
-1.228872072,0.044850912,-7.711137651,-7.372058722,-6.40305847,-8.576010941,-4.012032631,-7.116183661,0.74377401,-5.232700054,1.568402392,-11.47595052,-7.144023552,-2.866918886,-1.406679467,-10.54108329,4.887318469,1.709549946,0.453090048
-1.464319895,1.29733913,-6.195845542,-6.353184362,-7.544419851,-9.275374734,-5.667318862,-6.880801204,-1.060618441,-3.408217797,0.631394685,-12.6956034,-9.12244436,-3.388306071,-2.738794353,-9.721169059,5.349655885,2.185033571,0.901749152
-1.409116562,3.574255502,-4.006576845,-6.126057337,-8.054781081,-9.755181528,-7.490099232,-6.932638146,-2.551393887,-3.540982191,-0.393598453,-12.64360495,-9.990858541,-3.801661994,-3.421081104,-8.746844727,5.465397595,4.341743088,1.327876468
-0.53295972,6.834862503,-1.26167724,-6.51349296,-7.704754933,-9.911125157,-8.781664552,-6.968743785,-3.32411661,-5.283171211,-0.874774397,-11.18139123,-9.24823249,-3.916595146,-1.990227959,-7.600071115,5.32721511,7.66380394,1.815989244
1.085864699,10.25842149,1.472706725,-6.96462775,-6.767976704,-9.735851874,-8.99587113,-6.778358758,-3.224298515,-7.337439598,-0.195910115,-8.464269714,-6.936245349,-3.635346391,1.432989886,-6.65188462,4.792080516,10.56968561,2.234074315
2.80272351,12.64639526,3.464037571,-6.85318426,-5.794067851,-9.336826818,-8.017764323,-6.33144147,-2.344482486,-8.166235519,1.735551198,-5.166235271,-3.761748803,-3.096344993,4.959516936,-6.449584358,3.61386271,11.50777877,2.291641156
3.909625818,13.12582111,4.30311243,-5.713384958,-5.17467626,-8.873025599,-6.20200105,-5.666640719,-0.875453754,-6.774822598,4.359551334,-2.319572177,-0.840800893,-2.659803311,6.254199183,-7.41681312,1.711105212,9.911513935,1.795543393
4.127950263,11.56238987,4.128383449,-3.417618737,-4.873823401,-8.45758005,-4.167335894,-4.753931473,1.035850751,-3.17825205,6.821345123,-0.740204015,0.849257997,-2.693798902,4.337674279,-9.683236616,-0.676369374,6.291893829,0.856674501
3.665365101,8.369468224,3.344152002,-0.308971955,-4.542745133,-8.098280087,-2.476678167,-3.499706048,3.306886928,1.648477802,8.549765226,-0.429589067,0.993998651,-3.302755911,0.408967757,-13.09816862,-3.091625099,1.534065599,-0.162783442
2.83576236,3.960350093,2.078280654,2.793423182,-3.901431581,-7.713004184,-1.380836854,-1.897138225,5.831367072,6.267715487,9.625178255,-0.463299231,0.101769812,-4.214045807,-3.000755487,-17.31711966,-5.142025316,-3.866334853,-0.929053998
1.646488749,-1.58385077,-0.090058077,4.831409818,-3.040709569,-7.200691158,-0.75551581,-0.169554206,8.390300885,9.436895862,10.66695122,0.445389494,-0.824102083,-4.933099579,-3.890408683,-21.83628668,-6.71719216,-9.917219419,-1.394154171
-0.225505735,-8.27710942,-3.804171211,4.967046233,-2.376402165,-6.518950523,-0.251624131,1.249225374,10.65410841,10.58225139,12.32062958,3.038794945,-0.910727529,-5.076447895,-2.202286816,-25.97968609,-7.963949217,-16.54777752,-1.79879633
-3.026287109,-15.6393857,-9.211002913,3.03130039,-2.297681445,-5.730463174,0.434342395,1.912279418,12.27205251,9.876167313,14.70227374,6.892754191,0.042499357,-4.654815153,0.298695233,-28.96317946,-9.059226848,-22.96334446,-2.424052454
-6.46655822,-22.36845391,-15.45263451,-0.346009295,-2.820660156,-5.006563843,1.326805939,1.597200769,12.9701232,7.950944386,17.17487156,10.53227374,1.42889158,-4.107161614,1.517536181,-30.12587808,-9.997263747,-27.64978461,-3.325075817
-9.668150026,-26.72168257,-20.86246814,-4.0518046,-3.552179637,-4.589000371,2.113269087,0.415687467,12.59197723,5.487750791,18.60311825,12.22540345,2.17316776,-4.052982867,0.646670055,-29.24695148,-10.57860587,-29.15198387,-4.286967557
-11.62688045,-27.449316,-23.81230132,-7.056998207,-3.997622802,-4.710439276,2.304353359,-1.266972774,11.09283402,2.952015297,17.93365964,10.93854791,1.332880421,-4.911187655,-1.381875764,-26.72200348,-10.58978684,-27.03247016,-5.023315388
-11.84627567,-24.59763196,-23.62283812,-8.851266986,-3.950022663,-5.484729389,1.525500601,-3.023929536,8.545492164,0.588945774,14.76983032,6.864043716,-1.378207581,-6.612302775,-2.896390674,-23.41972157,-9.98693823,-22.21599269,-5.406848963
-10.63496866,-19.53580821,-20.88209653,-9.477637182,-3.632048489,-6.809629836,-0.232085804,-4.53431538,5.185259975,-1.428598147,9.634704284,1.258254406,-5.413402508,-8.571946202,-3.024673643,-20.26811026,-8.909994313,-16.42424824,-5.504400812
-8.836382233,-14.14813424,-16.97165289,-9.230830844,-3.478557915,-8.350915915,-2.558021445,-5.64585472,1.44226902,-2.913465138,3.794185744,-4.222726866,-9.629569491,-9.947981811,-2.453016603,-17.84104624,-7.536728267,-11.1574967,-5.400680653
-7.22643683,-9.782450429,-13.19738491,-8.341055032,-3.752865992,-9.655058639,-4.806513749,-6.349664287,-2.122687448,-3.755443189,-1.27039566,-8.254580726,-12.79740149,-10.05586462,-2.781511127,-16.22484516,-5.951412355,-7.022506973,-5.024160378
-6.065656757,-6.708238664,-10.17044856,-6.922284462,-4.322336839,-10.3593988,-6.409603243,-6.731752088,-4.996661419,-4.094591437,-4.491492578,-10.27825313,-14.13242955,-8.733789221,-5.04596565,-15.21460186,-4.181194409,-3.851279841,-4.197144168
-5.121605407,-4.38778302,-7.807839773,-5.169019281,-4.773456704,-10.38434479,-7.132977324,-6.936750113,-6.910084473,-4.351086652,-5.64942945,-10.52490942,-13.60294026,-6.463145471,-8.670573973,-14.61456406,-2.360874495,-1.34130263,-2.897335267
-4.057840134,-2.20256815,-5.789880065,-3.520950645,-4.758403728,-9.977429174,-7.131173398,-7.127420583,-7.900430684,-4.977482976,-5.392856652,-9.739373897,-11.88109979,-4.158797115,-11.74886316,-14.34484345,-0.81861378,0.474102244,-1.465609501
-2.796504371,0.027861542,-3.987626665,-2.53732822,-4.28240438,-9.565512262,-6.792950332,-7.415879315,-8.176124213,-6.056778199,-4.815626925,-8.776259023,-9.96716469,-2.711347134,-12.44681968,-14.26425175,0.08246309,1.377644395,-0.489601942
-1.544090451,2.112837734,-2.504581786,-2.518110607,-3.707884893,-9.505268265,-6.495149003,-7.787984872,-7.87514066,-7.071561154,-4.793829961,-8.210256742,-8.672744778,-2.514761519,-10.39958916,-13.92502754,0.271985697,1.535570575,-0.376188271
-0.518073894,3.941318901,-1.397561364,-3.197820674,-3.492758263,-9.898591687,-6.418228624,-8.084157299,-6.917687856,-7.111225963,-5.448029811,-8.074944974,-8.228814683,-3.254180558,-6.98004021,-12.59231719,0.177000061,1.821549112,-0.951800077
0.311491176,5.77756685,-0.445534275,-3.832867598,-3.882638436,-10.59070002,-6.508089045,-8.079030579,-5.094690413,-5.468296724,-6.065836868,-7.846884203,-8.233899394,-4.105910191,-4.230912449,-9.656167547,0.544929259,3.42552978,-1.478138673
1.195830964,8.060618302,0.744847317,-3.683035996,-4.780769394,-11.32808658,-6.563074644,-7.624402672,-2.344072232,-2.236514221,-5.571784759,-6.748050123,-7.980498235,-4.258552103,-3.320507475,-5.193567003,1.924781357,6.946526444,-1.153715473
2.32856576,10.8874721,2.369272157,-2.531957885,-5.848999077,-11.9351618,-6.364335234,-6.755849463,1.002505217,1.548825561,-3.288309356,-4.286847029,-6.976993796,-3.445235027,-3.749765831,-0.228472097,4.169545642,11.70974858,0.2592995
3.601594474,13.69961332,4.146597228,-0.829830552,-6.714651305,-12.3712744,-5.781376803,-5.68095865,4.220512372,4.39712359,0.48457947,-0.759688354,-5.350356568,-2.141371498,-3.9301755,3.601107483,6.375015102,15.95010404,2.200899348
4.647048733,15.52692813,5.420013906,0.6522311,-7.119550957,-12.64924315,-4.833704754,-4.660416113,6.47870342,5.188744372,4.463340047,2.638278167,-3.868882262,-1.282000773,-2.665919484,4.830699486,7.370035423,17.82247087,3.700893003
5.131224929,15.62817672,5.580579391,1.356593044,-6.951084169,-12.72490774,-3.714279017,-3.880851262,7.228723546,3.786132386,6.990267754,4.269705205,-3.547343049,-1.670150007,-0.363124423,2.918877994,6.444656356,16.51617115,4.102020375
5.016041455,13.98891402,4.458673203,1.217187729,-6.215962179,-12.48759366,-2.763090303,-3.417600202,6.437846308,1.016487803,6.905052127,2.899095373,-5.054706748,-3.462866131,1.010787524,-1.51996877,3.798458422,12.65865287,3.531173894
4.535640967,11.25526535,2.363642147,0.490800252,-5.036303569,-11.87395167,-2.359229779,-3.293012824,4.531208813,-1.930543797,4.159672882,-1.550040173,-8.270250846,-6.072297615,-0.74302028,-7.105165697,0.390955039,7.768722744,2.723636362
3.919995969,8.189957237,-0.218742032,-0.626593024,-3.666040974,-10.99172129,-2.728751718,-3.53725053,2.13291791,-4.225381886,-0.165401508,-7.798227644,-12.24597405,-8.532139465,-6.358385719,-12.38125889,-2.675011467,3.26161908,2.347327019
3.153779421,5.162058461,-2.95333254,-2.172001998,-2.452224123,-10.10731845,-3.744088251,-4.152389893,-0.174518196,-5.718800334,-4.401809132,-13.72324824,-15.59391268,-10.06144678,-14.25333834,-16.34990045,-4.770082953,-0.212386543,2.406856228
2.029071192,2.125012638,-5.696701425,-4.176037841,-1.696393871,-9.464352518,-4.853796322,-4.984202136,-1.920996679,-6.684305455,-7.035538684,-17.30555873,-17.08461834,-10.44123246,-21.17218467,-18.60291078,-5.930100308,-2.699424639,2.24935148
0.453625859,-0.948727722,-8.254934724,-6.257573716,-1.484615343,-9.066295345,-5.251754562,-5.629858035,-2.692991943,-7.276043117,-7.254782954,-17.4906135,-16.15598188,-9.983501284,-23.9694278,-19.16943294,-6.562109505,-4.41095104,1.181330575
-1.300405594,-3.662727273,-10.17227223,-7.535686828,-1.629938794,-8.622834692,-4.259835111,-5.531353946,-2.129631952,-7.209817503,-5.115264657,-14.54882213,-13.11592571,-9.181540602,-21.43648572,-18.35096629,-6.976101385,-5.335206204,-0.827403449
-2.696228074,-5.290119235,-10.85966692,-7.110157466,-1.810394664,-7.749543589,-1.737857563,-4.278841991,-0.091758944,-5.96597742,-1.386949621,-9.836147457,-8.99302638,-8.343485026,-15.04414496,-16.67680142,-7.134188397,-5.337579495,-2.968619717
-3.341948437,-5.345436044,-10.03458344,-4.826720202,-1.82242227,-6.300852849,1.729767929,-1.959401394,3.082139964,-3.356347044,2.751313893,-5.160889212,-5.13226028,-7.474897931,-8.143735938,-14.86011786,-6.765987583,-4.536679887,-4.128078335
-3.344638771,-4.109035841,-8.086332978,-1.680741587,-1.749690909,-4.580761619,5.023304362,0.710356184,6.485326799,0.033135319,6.067406836,-2.070304633,-2.693902297,-6.441698181,-4.093762282,-13.56619525,-5.675021228,-3.445763845,-3.707499838
-3.24486028,-2.551292497,-5.963875993,0.606944971,-1.894765038,-3.23975034,6.992199016,2.634658235,8.92020081,2.946876103,7.665433051,-1.299758746,-2.214147068,-5.216425795,-4.40030071,-13.0158154,-3.939361995,-2.624607118,-2.07018318
-3.530136184,-1.619249172,-4.566279321,0.672176508,-2.513450667,-2.894834408,7.019391789,2.894561737,9.483756011,4.120446765,7.358334572,-2.515783263,-3.370425716,-3.971855999,-7.937761367,-12.72721094,-1.863767445,-2.135696019,-0.25489201
-4.134466412,-1.456583266,-4.080971325,-1.507140712,-3.566758854,-3.727283878,5.34029524,1.302955921,8.121233574,3.068444644,5.844993473,-4.427550205,-5.066069933,-2.950473784,-11.68743863,-11.7254302,0.210735883,-1.381174906,0.797031985
-4.397076803,-1.259063441,-3.832943834,-4.497177774,-4.702916237,-5.344181251,2.938995167,-1.393962478,5.749030055,0.445961909,4.471555461,-5.298016258,-5.868117987,-2.250366047,-12.55845921,-9.213305375,2.034666902,0.403804787,0.876255345
-3.579884155,0.040476008,-2.831078598,-6.325144607,-5.49293342,-7.005212156,1.070202713,-3.835527718,3.792361937,-2.285977546,4.546385084,-3.756113848,-4.678100873,-1.742050463,-9.228753944,-5.259977683,3.432627731,3.360390239,0.526209478
-1.538076085,2.792456833,-0.616040264,-5.797507737,-5.727755437,-8.055754804,0.648470323,-4.744382605,3.376482423,-3.683940058,6.524129336,0.405253962,-1.348279059,-1.20901111,-2.923543963,-0.93666467,4.246330929,6.641297623,0.503047939
1.042269389,6.192996453,2.275153611,-3.260636484,-5.53327285,-8.270163102,1.806652314,-3.624434921,4.667993427,-3.106118092,9.594862336,5.900794281,3.099858783,-0.599573904,3.331348274,2.298655831,4.38486542,8.89614682,1.170311209
3.090069123,8.802772221,4.636236943,-0.25627918,-5.220016063,-7.892761692,3.835349327,-1.06245127,6.78693888,-0.979798409,12.05378854,10.41302312,6.848540653,-0.168498387,6.524842785,3.554570519,3.974774591,9.283679615,2.314302275
3.943981086,9.62750385,5.480473474,1.63777514,-5.015527086,-7.392030064,5.530219267,1.549645404,8.344009672,1.562098717,12.31694402,11.72703701,8.127121211,-0.365747833,5.420823042,3.05443438,3.424463761,8.157714314,3.449862589
3.83553654,8.86654946,4.787249901,1.887846077,-4.921629218,-7.134733942,5.783465214,2.735453025,8.255671478,3.38773899,9.944185774,8.948335956,6.106365761,-1.530034672,1.164204315,1.817896213,3.231914334,6.780958543,4.258452166
3.638349605,7.695706397,3.499543258,1.2134856,-4.810805756,-7.20475762,4.140428904,1.717949719,6.330899093,3.957367729,5.952206984,3.059584479,1.350119789,-3.602423427,-3.625442546,0.721475604,3.600839178,6.24081847,4.739357406
4.079893086,7.262487677,2.767267776,0.84287344,-4.643562105,-7.446654233,1.050768893,-1.149385324,3.303161164,3.480193052,2.169975802,-3.573128966,-4.440425544,-6.068703155,-6.633534499,-0.269635533,4.174360105,6.473342095,4.984975085
5.083029845,7.742798374,3.045742052,1.46804807,-4.569104741,-7.640399332,-2.320755795,-4.534553958,0.354552087,2.633424496,0.08471966,-8.469117111,-9.251591168,-8.181430711,-7.283264292,-2.016302685,4.182219793,6.272975504,4.878145962
5.809582556,8.254630304,3.77542112,2.735932528,-4.782515911,-7.648072615,-4.647353613,-6.78764626,-1.522508047,2.097719181,0.00688364,-10.29226342,-11.69191306,-9.328228587,-6.860544612,-5.302895582,2.980103934,4.348159604,4.081296586
5.384040554,7.687735261,3.890682914,3.625493916,-5.257453558,-7.444498785,-5.090419931,-6.771924792,-1.945213488,2.211568184,1.126363185,-9.343149544,-11.54291246,-9.330871329,-7.310341827,-9.888821646,0.590358972,0.556261386,2.380405018
3.686910582,5.722414951,2.728414807,3.333250931,-5.62533214,-7.065323111,-3.716038781,-4.440391528,-1.171160621,2.899310878,2.327522397,-7.075094869,-9.69090157,-8.517784154,-9.637937305,-14.3878377,-2.22082853,-3.766060339,0.061406248
1.534666596,3.154100804,0.589785608,1.91515449,-5.374106488,-6.563846014,-1.458570728,-0.865995794,0.161718704,3.823392721,3.045619894,-5.080494117,-7.568016274,-7.548864418,-13.11317359,-17.18272513,-4.456037496,-6.736587124,-2.088564973
0.076999634,1.246145822,-1.494221455,0.188934307,-4.258965126,-6.023401968,0.349958658,2.284140795,1.355442556,4.59825387,3.467629247,-4.270191319,-6.460291979,-7.09195068,-15.84514421,-17.68097894,-5.616947842,-7.405709892,-3.247606375
-0.094319905,0.674003715,-2.586017887,-0.962424244,-2.596114692,-5.586148849,0.63468187,3.557654082,1.864420553,4.932831618,3.989682354,-4.695820759,-7.021501371,-7.501331935,-16.24221201,-16.85399105,-6.053995565,-6.549669289,-3.148696087
0.614721597,0.972832718,-2.573157146,-1.270226891,-1.15861517,-5.425787529,-0.921502356,2.401379187,1.387213404,4.679872173,4.517800427,-5.913822768,-9.135319447,-8.634571277,-14.20476871,-16.53056929,-6.613788476,-6.074238464,-2.294506465
1.169991111,0.961876677,-2.218921513,-1.187974804,-0.69504769,-5.646451478,-3.767597141,-0.607450284,-0.082746123,3.853597312,4.343083402,-7.427940294,-12.06856086,-9.890870384,-11.13265979,-17.93552399,-7.844187944,-7.469339213,-1.587590169
0.767502238,-0.220817777,-2.505021034,-1.383365017,-1.407874687,-6.178288807,-6.780282153,-4.07082316,-2.208064046,2.665834178,2.790361237,-8.838557378,-14.77901575,-10.47519396,-8.77757496,-20.63044372,-9.416718958,-10.56206072,-1.655290122
-0.536951453,-2.355143461,-3.80554233,-2.081783963,-2.790942676,-6.771596748,-8.782719678,-6.440350462,-4.325379211,1.549417026,0.083628523,-9.722648805,-16.27244826,-9.792886905,-7.878740921,-22.74360087,-10.28196015,-13.59436666,-2.409328569
-1.929715301,-4.285824776,-5.547924144,-2.823019174,-3.967941244,-7.125999258,-9.031557515,-6.71286487,-5.631789188,1.077990291,-2.425536217,-9.563027917,-15.94443589,-7.790112803,-7.666243313,-22.3575315,-9.476577017,-14.57493267,-3.179744202
-2.549192035,-4.840886072,-6.61286905,-2.82092303,-4.293458714,-7.07928253,-7.480220377,-4.83602394,-5.539283129,1.731851473,-3.044002202,-7.960669843,-13.82440022,-5.039376195,-6.593388528,-18.98163198,-6.940914357,-12.81713489,-3.277146514
-2.18480167,-3.74548,-6.146323552,-1.612215162,-3.778129433,-6.719066694,-4.751223212,-1.670017288,-4.026362639,3.591998139,-1.025080675,-5.000645698,-10.59842639,-2.476754662,-3.664033653,-13.95410095,-3.66538173,-9.43781397,-2.49320119
-1.393318595,-1.790257116,-4.164056624,0.536889635,-3.037644686,-6.327387343,-1.857969478,1.442632887,-1.733263967,6.165972066,2.693398238,-1.382067269,-7.32491685,-0.899948641,0.73478124,-9.47095112,-1.017243104,-6.455048782,-1.142634529
-0.983392836,-0.16400378,-1.526507633,2.774862669,-2.827701851,-6.190576522,0.218440726,3.290664688,0.339642931,8.535084861,6.020764133,1.939910611,-4.916816925,-0.513133782,5.139449209,-7.03149842,0.227417673,-5.254777219,0.31797197
-1.34755493,0.450763584,0.644544308,4.219250333,-3.524301945,-6.407876513,0.950800084,3.324598715,1.408011682,9.825819556,7.232812824,4.403902275,-3.656479759,-0.816121609,8.141029659,-6.525742121,0.373056641,-5.660053531,1.688034686
-2.206361976,0.273979218,1.647567991,4.482051129,-4.916297026,-6.83237124,0.514076093,1.881484656,1.404599833,9.755084925,6.329157385,6.241936915,-3.064218142,-0.938172914,9.361348707,-6.625776008,0.432074398,-6.282171813,3.054832766
-2.928991411,0.055473076,1.515459562,3.799605146,-6.411210094,-7.179110382,-0.285381685,0.004593803,1.050922614,8.874036329,5.101321923,8.208443142,-2.259703603,-0.22315878,9.473885107,-6.067957215,1.213609548,-5.765299807,4.461655386
-3.088204914,0.336383705,0.825450956,2.745372543,-7.445792737,-7.216550166,-0.425481669,-1.073559341,1.400223225,8.274826062,5.749874651,10.7669518,-0.623507806,1.312652298,9.324619812,-4.722985524,2.630639004,-3.858747443,5.59137907
-2.743171029,1.012873334,0.236953591,1.814745327,-7.782410983,-6.907759455,0.738138967,-0.558763294,3.108488713,8.877390128,9.058649532,13.38745935,1.678563538,2.959721067,8.995923563,-3.598164358,3.785093562,-1.49050089,5.850990521
-2.240329192,1.541781971,0.120464237,1.205765047,-7.520509084,-6.416769566,3.020833653,1.468242859,5.897517168,10.74230011,13.55413142,14.62043718,3.694607838,3.750880206,7.695023567,-3.853360028,3.736895493,0.096109161,4.860045972
-1.782807312,1.533805853,0.483653247,0.891345176,-6.904343857,-5.996084768,5.397813553,4.04086803,8.575120608,12.89908779,16.36743574,13.03484631,4.250202591,3.064080128,4.602314588,-5.727709479,2.304840232,0.3320488,2.924585328
-1.215329116,1.157000776,1.134879434,0.815595051,-6.14409795,-5.844852314,6.497516193,5.752558908,9.628732196,13.8619216,15.20709561,8.376153854,2.714376422,0.997069961,-0.069292999,-8.292795306,0.244098258,-0.372606584,1.020386668
-0.237207565,0.985816053,1.876110777,0.977691611,-5.392613862,-6.026431345,5.345588668,5.44473853,8.044780791,12.52708072,9.97865877,2.031811562,-0.552754869,-1.710432544,-4.796950792,-10.19508558,-1.320334589,-1.145928651,0.199233978
1.174380788,1.45565769,2.572062854,1.326638929,-4.83194986,-6.474273341,1.923095526,2.779155642,3.871843296,8.859524772,2.852885536,-3.644702647,-4.375672914,-4.116483149,-7.613354075,-10.70206647,-1.716441691,-1.423033493,0.843403901
2.566155556,2.435668783,3.103978354,1.609543476,-4.70927777,-7.051552439,-2.797146852,-1.603667527,-1.779781677,3.911029347,-3.222474442,-6.736177781,-7.431259354,-5.562010414,-7.489584614,-10.14857241,-1.13911124,-1.266427555,2.371815118
3.271367317,3.308882674,3.322453085,1.384898909,-5.223355592,-7.609265665,-7.344205081,-6.403524943,-7.261010956,-0.814835324,-6.405961683,-6.895499115,-8.946145706,-5.901446679,-5.114519244,-9.447199972,-0.365494028,-1.038859744,3.666821066
2.937142196,3.483345986,3.084775581,0.267694474,-6.333628845,-8.013442731,-10.45463258,-10.25766471,-11.10615249,-4.180479161,-6.857773658,-5.398761333,-8.977247055,-5.399813263,-2.393733712,-9.154774183,-0.065937332,-0.852995038,3.9089601
1.855079666,2.879455964,2.353420649,-1.753057363,-7.675811655,-8.15173317,-11.57731675,-12.29117,-12.58112184,-5.857898687,-6.123437013,-4.117814973,-8.162721447,-4.454602237,-1.027590494,-8.949920039,-0.301163335,-0.390231818,3.167231696
0.782600936,1.976428135,1.259495544,-4.186558138,-8.707858426,-7.946529022,-10.94973729,-12.37282349,-11.85146769,-6.18116553,-5.683179489,-4.21088419,-7.208266597,-3.37666207,-1.295376233,-7.980302714,-0.583870716,0.727974819,2.286155508
0.377562116,1.399003019,0.061592136,-6.245171221,-9.022784346,-7.385613995,-9.316641137,-11.02827471,-9.791516714,-5.666214657,-5.904886926,-5.48582681,-6.505015542,-2.348378128,-2.015524349,-5.754613461,-0.381473683,2.401614817,2.178907249
0.704180146,1.416406376,-0.979546718,-7.274292365,-8.610876614,-6.551532948,-7.541218988,-9.132862491,-7.58890582,-4.666899048,-6.149850294,-6.805315184,-6.087465361,-1.49611689,-1.685991082,-2.775596029,0.41003416,3.913975201,3.104600488
1.209478835,1.77189376,-1.723819804,-7.118675255,-7.869698846,-5.616492976,-6.313964692,-7.550321971,-6.300715023,-3.416328865,-5.724912309,-7.078983216,-5.825187213,-0.930233589,0.166136545,-0.338779609,1.408960482,4.391169688,4.494235815
1.17285152,1.949558308,-2.194926075,-6.171823163,-7.340121539,-4.785212649,-5.995251111,-6.825959551,-6.46786853,-2.27108829,-4.683641808,-5.998159446,-5.581540813,-0.679390909,2.562711513,0.362839982,2.098823759,3.489404629,5.422783225
0.247201839,1.613549016,-2.530886538,-5.079955354,-7.348857949,-4.204049716,-6.525204416,-6.984505987,-7.881775641,-1.748551065,-3.724181366,-3.996696384,-5.189337526,-0.590571409,3.92948795,-0.88948062,2.238394923,1.709045879,5.308109477
-1.334528042,0.846766212,-2.886118108,-4.314562162,-7.804626271,-3.885456748,-7.388879045,-7.486063588,-9.617284724,-2.159401549,-3.344633702,-1.638395687,-4.349985464,-0.336423023,3.49335176,-3.172067285,1.98232316,0.05360214,4.275907548
-3.001097954,0.034172402,-3.340808921,-3.907852119,-8.279172366,-3.698790123,-7.738139823,-7.41496897,-10.40902363,-3.109784331,-3.148530462,0.899155268,-2.692338728,0.405041888,2.018906725,-5.049191952,1.663331862,-0.67600294,2.951946942
-4.270005028,-0.448424788,-3.850686902,-3.513062158,-8.301153336,-3.445422611,-6.763201885,-5.918108577,-9.28942468,-3.423213003,-2.071630905,3.743214423,-0.083624754,1.693054106,1.227766497,-5.483721728,1.486526291,-0.360101678,1.925876422
-4.985854458,-0.453414818,-4.248241907,-2.715710985,-7.654055453,-2.984149985,-4.213168933,-2.743084343,-6.192169714,-1.787027592,0.569854421,6.76898252,3.013670266,3.184018052,2.352248754,-4.366108656,1.419554721,0.54560328,1.360619737
-5.222960547,-0.047783038,-4.299681939,-1.358854441,-6.489478231,-2.333573135,-0.737990249,1.435747097,-2.133755577,2.200722826,4.141955689,9.185898788,5.508549915,4.248582996,5.018514768,-2.38415621,1.332250029,1.520217435,1.031764068
-5.034780022,0.631451103,-3.813362093,0.336256322,-5.211110546,-1.680951249,2.287269135,5.195847535,1.238051732,7.388215914,6.815941932,9.796830994,6.17022362,4.307985174,7.407584158,-0.482672258,1.191135859,2.374507078,0.676714554
-4.352971241,1.456938839,-2.766427298,1.905944843,-4.23604806,-1.278880289,3.488872108,7.067685245,2.547358633,11.48310133,6.834420465,7.852465944,4.42117269,3.186852148,7.606349123,0.619617151,1.087184636,3.183251053,0.284310428
-3.149951362,2.256993575,-1.380368397,2.909396233,-3.795626456,-1.285578152,2.367424179,6.393198461,1.511356243,12.41134162,3.976373413,3.832548383,0.889635703,1.254331559,5.090853067,0.596112478,1.077411278,3.896318816,0.063711278
-1.677769701,2.751325003,-0.074369987,3.134599144,-3.879109005,-1.652327496,-0.295264344,3.77742619,-0.877033622,9.710862573,-0.00811996,-0.553840162,-2.755727319,-0.741405287,1.176408081,-0.54133797,1.034896478,4.110055973,0.165273736
-0.483400552,2.641348536,0.715800211,2.637294377,-4.31311035,-2.142398471,-2.857533966,0.765231663,-2.978073416,4.89847847,-2.469561463,-3.279358441,-4.696767221,-2.046802708,-1.899982885,-2.478604964,0.706126065,3.329124831,0.462366546
-0.094828517,1.855640622,0.772264459,1.645409755,-4.890784564,-2.481709368,-3.849844705,-1.112309655,-3.563211275,0.453966697,-1.708689193,-3.222809926,-4.04921424,-2.266563869,-2.523985909,-4.556024445,-0.038563285,1.542195964,0.62925385
-0.598012632,0.745521764,0.242999063,0.442972688,-5.459895728,-2.54515985,-2.921039485,-1.302631139,-2.593838697,-1.875867065,1.788138682,-0.832495216,-1.414155087,-1.522992643,-0.688697763,-5.831194125,-0.993728893,-0.443932607,0.451001456
-1.474471625,0.000347069,-0.404398295,-0.683898903,-5.931846954,-2.44546303,-1.020914428,-0.528727494,-1.181096082,-2.184175149,5.679138694,2.239190456,1.494462938,-0.349563189,2.25269073,-5.437125688,-1.677950584,-1.334938969,0.066486012
-1.888425624,0.262959101,-0.616780661,-1.45338348,-6.236788175,-2.450102583,0.319759465,-0.186115241,-0.755039295,-2.077770156,7.41212659,4.238080682,2.909448109,0.598089142,4.733119707,-3.133961665,-1.659173577,-0.205949284,-0.104200533
-1.245389123,1.697072069,-0.050130319,-1.623073174,-6.282404377,-2.773591412,0.087610425,-1.258121588,-2.032383991,-3.192999965,5.939295302,4.349384369,2.055728098,0.856420657,6.030422543,0.350978887,-0.887406804,2.75540074,0.29040572
0.392431936,3.839391544,1.244943072,-1.094307786,-5.963279566,-3.390029097,-1.533770495,-3.537027273,-4.508903605,-5.756474923,2.259028367,3.002577442,-0.481589127,0.351762329,6.454429265,3.570754217,0.253988673,6.241032725,1.202808611
2.347208069,5.869025723,2.851214051,-0.025758525,-5.226665681,-4.007708568,-3.368572313,-5.729811205,-6.811824239,-8.361805853,-1.495950648,1.369208061,-3.233704342,-0.589151533,6.695046397,5.154425873,1.232186223,8.616245708,2.166769982
3.781467651,7.105231486,4.203686916,1.166947212,-4.154486974,-4.237531429,-4.131301764,-6.379509993,-7.625033582,-9.143990533,-3.593390153,0.551824965,-4.767548433,-1.40594809,7.055652929,4.637945994,1.745739121,8.948312352,2.616091754
4.217693056,7.37348283,4.872066976,1.996002735,-2.997126396,-3.846927549,-3.298611659,-4.928359223,-6.512853438,-7.379808494,-3.658471298,1.062520989,-4.418250873,-1.574094468,7.282341292,2.718043732,1.881666249,7.522249341,2.285654094
3.754963184,7.000390799,4.757106353,2.195097506,-2.110220361,-2.924981432,-1.35313945,-2.143680982,-4.09171145,-4.174738129,-2.459089803,2.818991937,-2.44093742,-0.863066911,7.052060003,0.725135505,1.932330005,5.513223704,1.379828157
2.884983562,6.497851206,4.110722333,1.925352408,-1.800234307,-1.843843158,0.686853417,0.401150209,-1.508856708,-1.631933976,-0.931324755,5.430109872,0.349058964,0.534750806,6.531348352,-0.286334673,2.060694832,4.138059111,0.399521106
2.117708326,6.216744261,3.385694497,1.718729063,-2.150754805,-1.043142927,2.001690295,1.410902675,0.326909585,-1.145854821,0.601719256,8.40328524,3.067931479,2.076596726,6.367388871,-0.140645659,2.129530927,3.953429631,-0.202838638
1.72014723,6.218075837,3.000273133,2.1589567,-2.935127678,-0.783056998,2.399108236,0.747883043,1.214903899,-2.200183562,2.392603362,11.14602571,5.053350702,3.122566792,7.059155952,0.57945749,1.845300118,4.752065604,-0.262102127
1.706971969,6.383957872,3.135688956,3.503700347,-3.689467619,-1.022756782,2.211324936,-0.486338684,1.594555114,-2.666448308,4.618271627,12.95589767,5.906358228,3.247992692,8.317237723,1.186452868,1.067579765,5.967968418,0.11146143
1.980836438,6.592496095,3.664595769,5.51644604,-3.931064704,-1.483778757,1.895183738,-0.68023213,2.126509608,-0.404779683,6.874279858,13.24492863,5.469291527,2.447840624,9.114508147,1.46892513,-0.018918133,7.127707597,0.708068258
2.427996772,6.779265009,4.245092861,7.632133625,-3.413359203,-1.832339254,1.743876794,1.270200641,3.299199769,5.065895144,8.371872503,11.96509365,3.895549619,1.118083969,8.527675949,1.718049222,-1.037352211,7.974246477,1.359449445
2.889883732,6.872861675,4.529770524,9.327090126,-2.274611241,-1.853358576,1.896292922,5.302889696,5.28415824,12.1020784,8.66163655,9.87873959,1.74847757,-0.171878601,6.694690597,2.255505546,-1.729251641,8.297625946,1.936914882
3.109317736,6.738712252,4.370119375,10.40389134,-0.991737391,-1.524240059,2.474864374,10.22374656,7.97058344,17.98556855,8.148943547,8.310063177,-0.086415534,-0.976209163,4.986884741,2.976198589,-2.141190663,7.811062293,2.2781652
2.797656781,6.245073661,3.888865874,10.9753449,-0.16108242,-0.982565178,3.562426265,14.30480212,10.97937965,20.6356876,7.818444999,8.395228612,-0.790177354,-1.163908985,5.086171938,3.383619348,-2.502591995,6.321154447,2.193567037
1.835997624,5.409021955,3.36769317,11.18903407,-0.222428629,-0.443144726,4.959085628,16.04486086,13.60053112,19.69913896,8.323111062,10.31189523,-0.12482106,-0.909121627,7.60853388,3.106059563,-2.910524622,4.066775561,1.603310386
0.448323261,4.460703661,3.021409483,10.9622468,-1.263353672,-0.117967091,5.994788638,14.730476,14.83388387,16.33218899,9.242522863,13.08588428,1.30813198,-0.522083415,11.40509527,2.394160196,-3.137822134,1.83588731,0.686307361
-0.844684599,3.717072708,2.818846575,9.994126476,-2.98495828,-0.152776496,5.741537604,10.6505796,13.74928521,12.06523195,9.257007413,15.18686175,2.341878107,-0.256845528,14.22431789,2.07386553,-2.782305005,0.604288512,-0.13767524
-1.515739616,3.340456059,2.489652229,8.074703323,-4.824263381,-0.5706581,3.644277535,4.99043606,10.11183687,7.784730799,7.221956281,15.51813528,1.950288747,-0.21994445,14.34016723,2.906173566,-1.656492821,0.877374955,-0.44362868
-1.370033654,3.190995664,1.72424731,5.423597793,-6.167779241,-1.231187791,0.13812113,-0.53158499,4.858198853,3.595957814,3.303227845,14.07776326,-0.07280753,-0.405608132,11.91278703,4.865068638,-0.070719064,2.249987256,-0.101076352
-0.670945008,2.92249408,0.423795076,2.722974767,-6.575150498,-1.844568267,-3.320679405,-4.231595546,-0.072061176,-0.542681049,-0.818430985,11.80990954,-2.948582006,-0.782545502,8.97052177,6.976489738,1.274335358,3.594293882,0.602678811
0.052086719,2.260351064,-1.190563449,0.745164875,-5.943549992,-2.073482769,-5.010036899,-5.113587243,-2.673631016,-4.195867288,-2.970253158,9.796544908,-5.398422428,-1.334186502,7.938472952,7.923462591,1.73798562,3.796856405,1.132339713
0.36570293,1.232044752,-2.696010594,-0.165782642,-4.558701161,-1.696549327,-4.052201888,-3.353405069,-2.099675759,-6.521674913,-2.037528175,8.447851755,-6.44506646,-2.019078647,9.78504526,6.979951792,1.176547801,2.506350415,1.048835256
0.188687097,0.156914409,-3.721425495,-0.328878194,-2.997759494,-0.740939533,-1.082243201,-0.305432062,0.66151923,-6.989539963,1.133208568,7.319085432,-5.973738535,-2.708077767,13.19433146,4.542770132,0.006984459,0.327859376,0.269510967
-0.230855682,-0.58608326,-4.136653363,-0.441263863,-1.893208775,0.514843477,2.072057292,2.098319087,3.24038646,-6.033575013,4.197502381,5.645151212,-4.695215942,-3.1888479,15.41335018,1.844616894,-1.149334103,-1.660126661,-0.935928878
-0.55394555,-0.80359571,-4.039534938,-0.964715152,-1.639456828,1.689762284,3.532401519,2.323670337,3.302488188,-4.9412788,4.83320349,3.095846414,-3.603869317,-3.274802683,14.15666485,0.086845216,-1.932915141,-2.658263895,-2.171162284
-0.583783279,-0.546418904,-3.583925664,-1.683247567,-2.186169498,2.512248065,2.544428563,0.051981633,0.041863813,-4.956872312,2.223195912,0.103845844,-3.366898396,-2.958585953,9.16612201,-0.326533387,-2.430688247,-2.586852746,-3.151854115
-0.321813737,0.02319512,-2.834577088,-1.83716146,-3.052853015,2.953523268,-0.133885164,-3.664161187,-5.257587483,-6.309810022,-2.525802525,-2.484962234,-4.06068216,-2.491066281,2.318514272,0.0982322,-2.951967985,-1.944541538,-3.780355308
0.134699314,0.775036538,-1.804216546,-0.781618995,-3.590798257,3.194042417,-2.852094993,-7.01929943,-9.993426942,-8.000100942,-7.22368222,-4.097962595,-5.339980474,-2.298740975,-3.7107571,0.473791317,-3.639864093,-1.315783723,-4.062957513
0.695030639,1.597364631,-0.641012763,1.342818308,-3.362108156,3.45848917,-4.174506776,-8.460051008,-11.83305432,-8.561436223,-9.98389739,-4.843296035,-6.785529035,-2.75811412,-7.171494885,0.195919059,-4.301089676,-1.001102584,-4.023887143
1.258641981,2.258714311,0.242698601,3.508826855,-2.409183514,3.849767624,-3.652559697,-7.448341645,-10.05230846,-7.204119329,-10.15888059,-5.290609829,-8.104645289,-3.951003771,-8.104084047,-0.782502899,-4.617267163,-1.040403974,-3.737938987
1.627900514,2.358391829,0.301069192,4.433673383,-1.236755258,4.301620317,-1.792611362,-4.55368936,-5.775411286,-4.417911716,-8.314542227,-5.843247067,-9.081111086,-5.554544207,-7.851886586,-2.166515949,-4.525396233,-1.473884336,-3.430621041
1.509515132,1.534634064,-0.770514062,3.51410145,-0.507393833,4.664526201,0.574545164,-0.927932077,-1.074326259,-1.56322656,-5.52230704,-6.285039399,-9.449667378,-6.950485766,-7.768933896,-3.673979477,-4.375256452,-2.456857014,-3.468301736
0.693326137,-0.161313495,-2.683781454,1.34850196,-0.642118927,4.831825275,2.892529154,2.388992178,2.337369324,0.190184713,-2.673934448,-5.930364563,-8.937354231,-7.512181023,-8.185445366,-5.124604116,-4.664606383,-4.031278805,-4.133081042
-0.700515754,-2.054633458,-4.553964374,-0.594749568,-1.582016561,4.794243524,4.972398045,4.860754044,3.902646192,0.707184555,-0.303254909,-4.26720363,-7.510870785,-6.920889578,-8.345374675,-6.215790328,-5.553618978,-5.769729897,-5.305321582
-2.143754898,-3.087411684,-5.346264884,-0.960474208,-2.854389592,4.592329089,6.651825244,6.396062234,4.098532227,0.863944899,1.182552332,-1.529130748,-5.599319764,-5.338158604,-7.190683427,-6.335252316,-6.601279277,-6.730621522,-6.345584941
-2.939966533,-2.456507367,-4.522650147,0.569246629,-3.87913046,4.238972296,7.51167568,7.064393036,3.714299788,1.741019732,1.339548968,1.337891473,-4.000149334,-3.332291233,-4.250269621,-4.783026543,-7.011168319,-5.946170966,-6.383537113
-2.671604479,-0.223615138,-2.440696156,3.085172702,-4.299639094,3.710924263,7.054933572,6.924701845,3.228372319,3.730637979,-0.078345169,3.348770268,-3.413040292,-1.586833546,0.051503022,-1.370917786,-6.237731481,-3.170658987,-4.906644149
-1.534182955,2.591268299,-0.192547965,5.113414096,-4.13230923,3.032626678,5.254102396,6.102688604,2.745757686,6.257295871,-2.652140683,4.274582778,-3.893924243,-0.540350208,4.767040053,3.091004698,-4.465274766,0.70885338,-2.244145113
-0.276627476,4.576106155,1.038072489,5.611339376,-3.677575842,2.368367081,2.935417304,4.952682584,2.372667903,8.250501743,-5.113712165,4.901236941,-4.669126001,-0.154971511,9.02216969,6.960855787,-2.541177303,4.025225263,0.464848817
0.251738269,4.79278706,0.672556427,4.561101267,-3.299778758,2.005053572,1.516444097,4.033458007,2.504568521,8.900926464,-5.814916924,6.490344988,-4.537288393,0.045559816,12.30945625,8.649402564,-1.383953951,5.300885876,1.891848719
-0.357659484,3.331977746,-0.978158309,2.782636266,-3.241206656,2.190631336,2.13896071,3.809569063,3.629092988,8.081893429,-3.683117299,9.801416853,-2.65406059,0.669884193,14.34893621,7.656806929,-1.329922316,4.174789017,1.353928273
-1.825984831,1.167433367,-3.00226587,1.209258498,-3.564168834,2.928404857,4.797382115,4.284481885,5.76156989,6.195506501,0.969616338,14.38468705,0.822252073,2.04509481,14.83221399,4.962380125,-1.947006113,1.609004518,-0.714278235
-3.399731433,-0.553970241,-4.5010161,0.245696667,-4.195725289,3.895393848,8.158862773,4.895684442,8.057801458,3.719476019,6.399828927,18.66531385,4.687463038,3.938628976,13.4387935,2.385405349,-2.464690433,-0.787965532,-3.00686235
-4.349354002,-1.242392347,-5.081488468,-0.321281554,-4.989145602,4.582090243,10.29049345,4.824377293,9.082772909,0.922813576,10.2576157,20.77270279,7.311488136,5.605665878,10.17534588,1.312685914,-2.458897922,-1.835409642,-4.166256741
-4.389793309,-1.102804876,-4.928369993,-0.899322352,-5.751312979,4.586334565,9.82510781,3.534989915,7.682756692,-2.039734028,10.78905545,19.56436481,7.533151232,6.171623797,5.691706565,1.710221694,-2.218483275,-1.489908115,-3.622829685
-3.754416709,-0.790485682,-4.501981946,-1.610450895,-6.260017208,3.865194444,6.760141364,1.153081616,3.854666781,-4.859954671,7.683069289,15.21214449,5.272589682,5.148999435,1.172250177,2.165825871,-2.485583675,-0.724477007,-1.890433059
-2.936143086,-0.841297439,-4.166573677,-2.191840425,-6.32252914,2.764296367,2.361696162,-1.601666158,-1.083474832,-7.003073294,2.10872089,9.069559231,1.519652622,2.779675558,-2.238957159,0.956423426,-3.783230601,-0.729184927,-0.145210514
-2.339599565,-1.34256142,-4.029890338,-2.313771147,-5.876217626,1.799395611,-1.691703414,-3.870872619,-5.229793713,-7.968494139,-3.963763054,3.012908273,-2.226215539,-0.027221156,-4.069655181,-2.626635636,-5.886403406,-2.043041425,0.586967927
-2.095798775,-2.029865281,-4.032907868,-1.952783096,-5.057880647,1.342656347,-4.270817468,-5.152201976,-7.255852011,-7.650418166,-8.667913917,-1.304196711,-4.678182581,-2.155704697,-4.681584226,-7.648168316,-7.876698572,-4.207954697,0.066014112
-2.107839277,-2.609153354,-4.105634326,-1.424344386,-4.156421318,1.429691938,-5.215586847,-5.475271049,-7.148969239,-6.426668967,-10.87825671,-2.938204567,-5.245224858,-2.882665051,-4.794544676,-12.03433768,-8.749031245,-6.111173344,-1.105126142
-2.205759162,-2.958888823,-4.195663382,-1.028491199,-3.443661823,1.806612864,-5.046699549,-5.172422067,-6.000389095,-4.846126006,-10.38619928,-1.809173631,-4.106054829,-2.255589018,-4.747592591,-13.8398471,-8.102085956,-6.70966392,-1.97627346
-2.249900297,-3.061420283,-4.162269407,-0.659691411,-2.989349535,2.157929693,-4.33756785,-4.47980288,-5.022754949,-3.178489203,-7.731413729,1.372203202,-1.967465779,-1.01350798,-4.131086935,-12.40164494,-6.390718948,-5.639804612,-1.909269696
-2.134330531,-2.823164885,-3.708921464,0.199822603,-2.60672489,2.333914346,-3.288671865,-3.316425777,-4.568660174,-1.251876211,-3.905058075,5.312238938,0.284788065,-0.100254356,-2.147451118,-8.642912828,-4.572586096,-3.375230688,-0.951370145
-1.767017797,-2.05374238,-2.513211956,2.022451861,-1.994256432,2.416657145,-1.775699289,-1.416607485,-3.914096647,1.238183488,-0.043670284,8.490005581,1.889456711,-0.077440569,1.5495977,-4.413011911,-3.441986778,-0.917088326,0.280490156
-1.112236822,-0.680874213,-0.510395219,4.678392524,-0.990382871,2.599656061,0.290046447,1.308193303,-1.97023759,4.203252521,2.881458586,9.680636945,2.421850913,-0.805343829,6.229844396,-1.371823483,-3.147914675,0.754760015,1.064044053
-0.277094212,1.01483864,1.90923498,7.28849961,0.241024401,2.994361666,2.673458628,4.483550706,1.639317863,6.90832928,4.363904011,8.51085091,1.910912219,-1.581553376,10.26006721,-0.135997577,-3.208806551,1.178693266,1.043544541
0.468010745,2.442631791,4.014273154,8.687035873,1.241387589,3.516108205,4.850218187,7.301030176,5.988655984,8.279118216,4.533552296,5.737805884,0.826500705,-1.629891429,12.05739783,-0.134950661,-2.945704086,0.63719689,0.4150328
0.813514402,3.08052989,5.141593785,8.183865756,1.501778484,3.925195115,6.294473197,8.860719733,9.233119856,7.586392636,4.045306005,2.966441999,-0.114603128,-0.614836631,11.16735292,-0.139784035,-1.977195399,0.01193982,-0.249286069
0.619789455,2.902197696,5.117884849,6.042350128,0.765927451,3.978585286,6.745220941,8.608920702,9.715906186,4.985577616,3.659024822,1.8167292,-0.303261191,1.140695552,8.650649447,0.931014552,-0.441877548,0.306363234,-0.38625995
0.041633639,2.450135041,4.359762552,3.297114414,-0.805328806,3.577448467,6.245693915,6.608241889,7.004781028,1.482262184,3.709198748,2.94958705,0.398427727,2.847664023,6.428260056,3.388023876,1.133716581,2.033560145,0.21338225
-0.562029147,2.419713703,3.552638135,1.057258798,-2.710209308,2.817120365,4.988082549,3.505288663,2.121330602,-1.659669466,3.794358657,5.553263268,1.507778623,3.703163503,5.993008016,6.61027336,2.154391145,4.796603758,1.293663026
-0.890377551,3.05484946,3.144797294,-0.161403016,-4.366828284,1.926077967,3.162424978,0.241967418,-3.179790641,-3.628665184,2.918231301,7.684952593,2.127143486,3.310508888,7.38292853,9.372121889,2.230306137,7.367357133,2.2973309
-0.933513658,3.870029213,3.050336917,-0.585751621,-5.394592792,1.150726962,0.958137521,-2.331600065,-7.548778461,-4.402123571,0.032692308,7.345506445,1.433974534,1.83330127,9.155912326,10.47377395,1.287890488,8.321307559,2.694250514
-0.978731736,3.983807658,2.792782437,-0.773440354,-5.758384982,0.657852166,-1.327814194,-3.777630899,-10.80560746,-4.547280832,-5.335437708,3.673147913,-0.814401513,-0.156074672,9.408504255,9.376185925,-0.452043479,6.91015621,2.282408885
-1.369356159,2.843082038,1.967329755,-1.045404121,-5.716812281,0.492955898,-3.256914105,-4.215320269,-13.86467339,-4.736458872,-12.75436462,-2.479355866,-4.069674627,-1.989884639,7.142005066,6.53198461,-2.548279038,3.616773267,1.29309581
-2.199221799,0.763258538,0.644165342,-1.244559024,-5.630296156,0.59012196,-4.410369535,-4.246214535,-17.97840419,-5.37677419,-21.05404001,-8.966032536,-7.222932819,-3.181525652,3.025437729,3.221514377,-4.435599106,-0.027541739,0.245566383
-3.184253186,-1.175420389,-0.612455432,-0.968180546,-5.746301676,0.810055626,-4.669301419,-4.681113694,-23.90844847,-6.559319306,-28.89685298,-13.5381768,-9.165954489,-3.547139197,-0.981951765,0.940298201,-5.568042438,-2.305059676,-0.356971372
-3.815559191,-1.829081959,-1.122069021,0.004121074,-6.069516255,0.989059409,-4.390101846,-6.162240055,-31.59423127,-8.215690541,-35.44225737,-15.09822416,-9.381025546,-3.18259202,-2.897362897,0.646325146,-5.609560381,-2.301344993,-0.302081699
-3.681711953,-0.762959276,-0.562920325,1.501620164,-6.369783228,0.992352896,-4.295917547,-8.841278134,-40.44197609,-10.23099063,-40.76435733,-14.27376376,-8.243246072,-2.377794555,-2.005876215,2.294931123,-4.593264087,-0.355418959,0.254710096
-2.728763867,1.484298852,0.817205119,3.134903734,-6.315299227,0.763922989,-5.111511079,-12.28177619,-49.88277269,-12.40002071,-45.82153,-12.98795972,-6.877632723,-1.530039465,0.702073377,4.944748728,-2.932695265,2.312560955,0.945838702
-1.290652394,3.814680545,2.390972943,4.628535694,-5.664985975,0.355363993,-7.166397382,-15.66095832,-59.71062165,-14.35076217,-51.9940819,-13.30981445,-6.642844605,-1.055129092,3.236323044,7.365689986,-1.237154736,4.476084791,1.455977673
0.101096458,5.31006945,3.568843348,5.950555074,-4.424147238,-0.086250328,-10.22206023,-18.18088864,-69.97842693,-15.63548305,-60.40151113,-16.286191,-8.493632687,-1.268048275,3.961731079,8.751905617,-0.017213578,5.614835602,1.698980043
0.982793026,5.738113421,4.127983169,7.10786978,-2.875284712,-0.377012556,-13.6267142,-19.46584102,-80.64208033,-16.01980124,-71.31771081,-21.44058029,-12.52847912,-2.245750583,2.670887248,9.085182472,0.546762154,5.989136738,1.789279638
1.150177045,5.519132781,4.255379013,7.854193962,-1.45156423,-0.382418298,-16.689673,-19.72392237,-91.34405891,-15.75531228,-83.978255,-27.19738836,-17.94346645,-3.749588598,0.64991251,8.960979939,0.639634945,6.153388278,1.859773923
0.721401482,5.306433741,4.355407107,7.698849367,-0.509358245,-0.093919317,-19.04736416,-19.59668,-101.5618753,-15.55904104,-96.90446881,-31.92593558,-23.4255888,-5.296580457,-0.285093527,9.078730225,0.652247499,6.425930123,1.904587156
0.098752152,5.591172586,4.826471017,6.340469332,-0.129527544,0.34211186,-20.82486726,-19.80958598,-110.977055,-16.23135605,-108.6014487,-34.93985833,-27.80281121,-6.39074494,0.905616398,9.80710472,0.951491904,6.789372222,1.79907952
-0.139131092,6.610726704,5.96030454,4.198599609,-0.076973783,0.663786583,-22.52847928,-20.83472801,-119.6838175,-18.15000877,-118.2526728,-36.8454907,-30.62177623,-6.804295245,3.746092541,11.10981183,1.7203006,7.230752511,1.486779308
0.5819382,8.489771677,7.94652507,2.506592351,0.042804035,0.594995817,-24.74025757,-22.72703238,-127.9738378,-21.00476632,-125.9962383,-39.05977273,-32.33571816,-6.731226294,6.568297875,12.7835553,2.926863001,8.085519672,1.159696042
2.585005912,11.32912933,10.85882582,2.708455527,0.521639256,-0.026389484,-27.76367738,-25.1584267,-135.8174229,-23.96257547,-132.6011908,-42.84078974,-33.97875028,-6.691643572,7.641972592,14.71120812,4.387379739,9.942516663,1.240538199
5.717334549,15.07184415,14.55890937,5.485746904,1.350103775,-1.148801829,-31.38316818,-27.56862066,-142.4837221,-26.12517474,-138.7526922,-48.46200496,-36.49419429,-7.220916284,6.299888049,16.87482321,5.854155354,13.1091655,2.130386362
9.305420887,19.27741153,18.6033228,10.13796085,2.213339493,-2.491478968,-34.86081562,-29.34320219,-146.7057203,-26.94157543,-144.4376151,-55.03636356,-40.10453159,-8.527156592,3.283318456,19.14363124,7.091450308,17.11020709,3.890556417
12.39590164,23.09827252,22.30422136,14.87003785,2.680813708,-3.63901925,-37.20305402,-29.98340383,-147.3904474,-26.32520751,-148.8684798,-61.05010361,-44.10482337,-10.33246487,0.119037434,21.08844684,7.936385198,20.73602746,6.107764857
14.20403935,25.59417967,24.98608019,17.88125019,2.460518979,-4.216024712,-37.5994147,-29.26061058,-144.4075016,-24.49659237,-150.9986589,-65.20305613,-47.20993222,-11.99863752,-1.963882822,22.05614618,8.33753198,22.69569297,8.069732578
14.5051365,26.18485993,26.28621838,18.50788184,1.556465823,-4.057760224,-35.81860959,-27.31521722,-138.846896,-21.77051922,-150.2386112,-66.98656747,-48.24050557,-12.85512737,-2.774687811,21.49090484,8.340603404,22.37297408,9.145427129
13.69188364,24.86774125,26.26187873,17.58010983,0.250727549,-3.280081046,-32.33240068,-24.61928059,-132.4728915,-18.46805219,-146.8292446,-66.66616438,-46.72521358,-12.52456367,-3.064731749,19.25312603,8.004841422,20.05705066,9.108167657
12.4364186,22.01419144,25.20116477,16.71992783,-1.045376997,-2.202165265,-28.07467168,-21.76207659,-126.6897184,-14.93508212,-141.6028352,-64.7903798,-43.07139216,-11.06104755,-3.753060653,15.68743369,7.300059538,16.47420844,8.187720033
11.1945866,17.95312246,23.29417559,17.10540124,-1.960306202,-1.166058933,-23.97136092,-19.14765579,-121.732943,-11.51809975,-135.3576562,-61.6792449,-38.25607629,-8.854300823,-5.119622178,11.42232015,6.090991448,12.089895,6.847719594
9.927577269,12.77621787,20.47084082,18.62816302,-2.270733822,-0.366957093,-20.53901352,-16.80961444,-116.6826066,-8.42658624,-128.3862582,-57.31082009,-33.29452445,-6.401193266,-6.574067998,7.116411842,4.279166208,6.880802627,5.483371387
8.257495827,6.605766092,16.59096426,20.05439722,-1.945503864,0.198383414,-17.80689077,-14.51614315,-110.3199266,-5.608446118,-120.5590385,-51.66026455,-28.83885545,-4.101093131,-7.112231234,3.370308668,2.035892328,0.840208576,4.263736002
5.925918146,0.094776314,11.85334215,20.0162278,-1.161690869,0.643312527,-15.57863475,-12.13278672,-102.2311594,-2.845026698,-111.8764162,-45.14880717,-25.10027177,-2.170601244,-6.040806059,0.797938221,-0.070507602,-5.261406189,3.193261863
3.167974484,-5.38687173,7.044747845,18.03368256,-0.298986363,1.044808482,-13.78977926,-9.973466984,-93.36096044,-0.102037918,-102.9717426,-38.75224459,-22.02558902,-0.664805659,-3.404353121,0.034410494,-1.234490439,-9.697016209,2.278052914
0.671446342,-8.248767545,3.31679993,14.7873305,0.13445553,1.360881381,-12.64878494,-8.813296596,-85.59148343,2.119916654,-95.05043924,-33.59216651,-19.50651611,0.469564849,0.136389928,1.493158375,-0.844413748,-10.60391923,1.61569889
-0.871198325,-7.647295828,1.546728763,11.492028,-0.312959776,1.476198432,-12.43907655,-9.453068881,-80.60525954,2.813115786,-89.20973378,-30.27026937,-17.45723798,1.359462447,3.76046573,4.972014425,1.075720103,-7.326855941,1.327649542
