Channel 1 - P4,Channel 2 - O2,Channel 3 - P8,Channel 4 - T8,Channel 5 - C4,Channel 6 - Cz,Channel 7 - Fz,Channel 8 - F4,Channel 9 - Fp2,Channel 10 - F8,Channel 11 - Fp1,Channel 12 - F7,Channel 13 - F3,Channel 14 - C3,Channel 15 - T7,Channel 16 - P7,Channel 17 - P3,Channel 18 - O1,Channel 19 - Pz
-7.653988462,-17.06903563,-16.44840094,-9.145040922,-10.08673513,-15.23015543,-19.64329295,-12.1726407,2.586728213,-5.289445184,-6.659688927,-15.86700887,-8.275678683,-14.73857599,-18.34606648,-12.64718013,-14.02562468,-21.21329223,-17.49511923
1.658851583,-7.778064579,-12.60069636,-6.765465589,-1.003301188,-12.72916193,-23.26528793,-10.87752179,-3.489771024,-6.113646108,-12.81988706,-16.58929064,-7.763872488,-12.76772658,-15.10588364,-4.682551478,-6.800293122,-17.20333463,-12.47608397
7.766724805,1.091924557,-6.57054512,-2.179651215,6.796311708,-8.078868444,-18.58878497,-5.058274667,-2.611911276,-2.534022231,-13.18467423,-15.93261284,-5.572297666,-8.955875512,-10.97530783,2.005990763,0.065228833,-9.611515368,-6.593171256
7.426020723,4.759473786,-1.956147746,2.010407034,9.772929605,-3.725408721,-8.021437779,1.966200806,2.165071266,2.57106157,-9.492953267,-14.88071661,-3.045019376,-5.455865963,-7.864451189,4.508288311,3.17452393,-1.783427663,-2.368959217
2.026016056,2.680693521,-0.592466474,4.131745936,7.691588501,-1.301086608,2.93177502,6.614993071,6.714884635,6.146783763,-4.998211455,-14.07725227,-1.045630697,-3.331845496,-5.99176727,3.17969034,2.192029574,3.298685292,-0.810504364
-3.79009538,-1.716443799,-1.745485601,4.141254596,3.240495847,-0.939147587,9.030241138,7.072275088,8.328875157,6.631085398,-2.487149305,-13.70470878,0.289660785,-2.301176361,-4.563804604,0.763601982,-0.557048455,4.554897424,-1.259748357
-5.736551816,-4.075485826,-3.138671958,3.200459532,-0.224269021,-1.660391405,8.370506958,4.06072939,6.839572959,4.471949545,-2.95622192,-13.74820361,1.148901993,-1.514442424,-3.157092081,-0.077854073,-2.284129206,3.092308989,-2.272633731
-2.895871508,-2.396123688,-2.841735258,2.617125127,-0.996843129,-2.353585349,3.104080869,-0.008262725,3.934250614,1.386000066,-5.623090178,-14.27494892,1.489448754,-0.551565491,-2.424826181,1.218915616,-1.860416101,1.17100114,-2.73044426
2.058885275,1.899256172,-0.571283068,2.970755709,0.240506866,-2.544151107,-2.523232872,-2.781751235,1.49905881,-0.938282489,-8.940038248,-15.41865031,0.907937955,0.230955175,-3.490304541,3.038921161,-0.287143086,0.628744211,-2.399454128
5.328570276,5.624180577,2.415617049,3.948956176,1.531211479,-2.460914301,-5.224859527,-3.376389329,0.317091165,-1.783228215,-11.69309179,-17.10498887,-0.935128023,0.195413591,-6.652391465,3.264223331,0.583260992,1.823427233,-1.717236627
4.990510577,6.568793879,4.509881199,4.82745784,1.469854457,-2.537305048,-4.592539606,-2.595785022,-0.089545483,-1.504974341,-13.46041026,-18.84930228,-3.761218952,-0.804626896,-10.6846309,1.152492799,-0.215101717,3.705942594,-1.186576034
2.177584865,5.033364968,4.958154085,5.107805896,0.23543196,-2.889684561,-2.68734904,-1.998779442,-0.660911627,-0.949108203,-14.36384568,-19.91451927,-6.568903696,-2.137320334,-13.49031771,-2.142780169,-2.05153888,4.803681791,-0.946241162
-0.273771652,3.09067958,4.193914594,4.845463993,-0.826506094,-3.215648808,-1.926497728,-2.610079576,-1.851612497,-0.710246211,-14.57099916,-19.76925142,-8.165857513,-2.86347134,-13.65285855,-4.72128071,-3.474504225,4.281181388,-0.802370536
-0.352146309,2.454757742,3.20876981,4.54118006,-0.489405737,-3.111161673,-3.061321395,-4.172887206,-3.232675977,-0.711004361,-14.02256754,-18.46020994,-7.939652814,-2.533229738,-11.57866177,-5.665985552,-3.640196558,2.283245483,-0.562708687
1.569732379,2.867161986,2.620550736,4.796391668,1.384378119,-2.440444404,-4.744143613,-5.345761803,-3.766022455,-0.258020026,-12.49911401,-16.53433557,-6.222339033,-1.586511421,-9.216761218,-5.86496442,-3.093867839,-0.597999578,-0.300401678
3.288393726,2.297840793,2.205525868,6.006534886,3.926575227,-1.406707483,-4.79232811,-4.584214748,-2.395112662,1.554322731,-9.818854948,-14.52917407,-3.93189242,-0.995348618,-8.52140809,-7.279868343,-3.267769412,-4.161698077,-0.31449932
2.75347391,-1.342570967,1.165177434,8.21192114,6.143903994,-0.300664749,-1.959788099,-1.084633039,1.455216165,5.325752018,-5.950502406,-12.46567569,-1.797214922,-1.454746025,-9.89205849,-11.32217538,-5.198518212,-8.926148496,-0.866056687
-0.287331585,-8.472571914,-1.210647874,11.05977373,7.701903465,0.786541148,3.193728544,4.739589998,7.621657497,10.92412435,-1.039741565,-9.833927228,0.160652133,-2.810558425,-11.86596657,-17.66952808,-8.589194602,-15.57001494,-1.957361793
-4.281317845,-17.44793249,-5.044636555,13.82040081,8.933130772,1.991515933,8.853640677,11.41588912,15.13625685,17.3172564,4.520531281,-6.163679383,2.444512527,-4.189123204,-12.3132107,-24.40328606,-11.97554162,-23.89707873,-3.346645093
-7.310645678,-25.66075928,-9.837321469,15.50785136,10.18238695,3.430235164,13.28034997,17.03296621,22.3360038,22.7930036,9.962996443,-1.732173848,5.376311268,-4.68423762,-10.15408352,-29.24310169,-13.79427424,-32.23059682,-4.758146549
-8.613187285,-31.1136712,-14.77127426,15.20056676,11.21179837,4.937579339,15.79656905,20.00764483,27.26055837,25.58713712,14.16148628,2.243194312,8.530636679,-4.005565943,-6.208833736,-30.84986228,-13.44523446,-37.91262102,-6.081598357
-8.910048008,-33.25911713,-19.02698706,12.52446499,11.28336464,6.076817565,16.78799181,19.7009164,28.38920223,24.71263823,16.00021793,4.226535107,10.85943931,-2.576380751,-2.52486624,-29.2752714,-11.54238855,-38.75394185,-7.388306524
-9.422109625,-32.69067601,-21.92052038,8.040115946,9.856779826,6.442319613,16.9733601,16.66564561,25.45937232,20.56291142,15.01398006,3.433975752,11.45310881,-1.079349467,-0.775357947,-25.45096204,-9.286229418,-34.47705941,-8.765809873
-10.59422417,-30.25347091,-22.93517761,3.197044226,7.235398756,5.991856407,16.72155083,12.41100728,19.83155443,14.86210688,11.86294324,0.551804779,10.3035978,0.087090012,-1.047120768,-20.36875699,-7.580405451,-27.07064241,-10.12278509
-11.69041699,-26.45830271,-21.81557872,-0.270806604,4.516983793,5.101220535,15.96814402,8.729935273,13.9776664,9.863398971,8.172870394,-2.515657826,8.400657849,0.965160247,-1.961096277,-14.68459078,-6.598827646,-19.686858,-11.12414823
-11.54261448,-21.58245006,-18.74523174,-1.238160564,2.827202185,4.276685962,14.6298372,6.855169588,10.2220291,7.188394242,5.689816788,-3.784752798,7.045664983,1.743777928,-1.945754904,-8.915418552,-6.007116354,-14.76628424,-11.30465869
-9.685603671,-16.10051148,-14.42873907,0.1775828,2.465772029,3.767932841,12.97291318,6.87017917,9.468352868,7.002716561,5.267051659,-2.449054895,6.932967914,2.384963005,-0.560957099,-3.782603377,-5.467620111,-12.6731737,-10.28841879
-6.825901172,-10.82398222,-9.89209684,2.690141029,2.694655595,3.414686445,11.52626641,7.737759195,10.77477489,8.062905757,6.41844854,0.63639933,7.745067886,2.589700703,1.209619898,-0.161140474,-4.913214457,-11.78457881,-7.996569887
-4.262141152,-6.524096575,-6.040241351,4.62285652,2.360312825,2.852073645,10.63918041,7.977501304,12.10080559,8.610286565,7.789747893,3.579064763,8.561454821,2.152323714,1.87892656,1.434037523,-4.415768042,-9.92581071,-4.753060437
-2.834181687,-3.411300339,-3.259343936,4.899702665,0.841328784,1.881741471,10.14702692,6.602750008,11.71172743,7.515404665,8.188219092,4.708465868,8.68229486,1.328202058,0.769128183,1.34475677,-3.912528245,-6.065301137,-1.244109341
-2.354058486,-1.031777902,-1.365619801,3.601227572,-1.448566604,0.674534394,9.490685746,3.723085243,9.244995171,4.916893449,7.363660245,3.559509576,8.13103293,0.779074209,-1.387845355,0.689387345,-3.160252429,-1.019608405,1.677951894
-1.970740651,1.259181212,0.062751054,1.745570319,-3.386224844,-0.370272202,8.184388301,0.418106246,5.719539853,1.975117211,5.949384804,0.924972013,7.418744945,1.04310996,-3.038265153,0.629682962,-1.995525904,3.301273492,3.310119265
-1.051906433,3.666313629,1.254278625,0.5009881,-3.993504691,-0.972657436,6.194871379,-2.017741544,2.590725827,-0.01017546,4.687427735,-1.946373149,6.839757467,1.960171547,-3.075784301,1.520364309,-0.615669213,5.458943176,3.421172068
0.263741307,5.764468728,2.079824696,0.413970509,-3.12003864,-1.20821286,3.895473406,-2.924521685,0.659229952,-0.45754356,3.667898651,-4.308033315,6.004830373,2.607650844,-1.753251836,2.651277459,0.46274785,5.617032123,2.404105505
1.3194751,6.942364251,2.280342181,1.173683901,-1.44800736,-1.422817964,1.677368706,-2.636783061,-0.328471874,0.231697185,2.277274962,-6.291135518,4.106366663,1.914817138,-0.516663778,2.845635471,0.799075714,5.370123732,1.114247873
1.68944598,7.065303609,1.855262056,1.999997265,0.104386511,-1.908874688,-0.377535341,-2.144211107,-1.186248945,1.086997464,-0.102086381,-8.487664262,0.729976652,-0.467685516,-0.906688736,1.476010992,0.435734351,6.442231517,0.417124579
1.659035894,6.715315724,1.229266016,2.285944753,1.043387891,-2.637226459,-2.439538038,-2.349457932,-2.440406138,1.266248157,-3.296164437,-11.17826215,-3.514480844,-3.746476632,-3.379033921,-0.903398477,-0.083588289,9.30126972,0.687266176
1.95616217,6.747319863,1.011110576,1.988701112,1.511804752,-3.279911439,-4.565474759,-3.475444139,-3.893362634,0.520944792,-6.219324947,-13.88664316,-7.172944772,-6.412304115,-6.913839985,-2.823759885,-0.152503403,12.77135973,1.590749501
2.987774538,7.540759153,1.529909895,1.519461952,1.974353209,-3.491397036,-6.422468573,-5.007896594,-4.924738227,-0.819559099,-7.61925069,-15.62512366,-8.893271138,-7.250783608,-9.660277786,-2.881654046,0.361988475,14.91838487,2.333480688
4.323629256,8.630543991,2.549117933,1.297993576,2.730831749,-3.188170602,-7.429569192,-6.134523073,-5.175139756,-2.203387467,-7.095644635,-15.61148841,-8.414061838,-6.188478475,-10.1164067,-0.699039641,0.96643322,14.49368575,2.233922723
4.955369779,9.077820853,3.420471247,1.376028466,3.683628594,-2.583399527,-7.244052434,-6.30616806,-4.944391171,-3.217376348,-5.515599975,-13.87138368,-6.788101297,-4.329025557,-8.025716771,2.834644418,0.938608907,11.82466585,1.21959964
4.143377007,8.277491702,3.567298701,1.428266807,4.489131176,-1.970147892,-6.164155766,-5.534161927,-4.941372308,-3.728533985,-4.425170201,-11.26433208,-5.633319421,-3.151567812,-4.448510906,6.173704001,-0.036394658,8.519706411,-0.125712007
2.107644047,6.499153459,2.906009086,1.079318274,4.86863442,-1.476860123,-5.052297161,-4.302816378,-5.63871335,-3.825719215,-4.896889443,-8.944223998,-5.990369196,-3.480358582,-1.060705783,8.092091354,-1.526984701,6.289549376,-1.01162372
-0.066675483,4.687364001,1.870881114,0.264440171,4.76436013,-1.027732526,-4.78533278,-3.259848552,-6.841913802,-3.720306682,-6.733776561,-7.682826989,-7.672776383,-4.984177206,0.803234173,8.326018842,-2.612655464,5.824947966,-1.049842023
-1.254455074,3.700169849,1.046597958,-0.678976254,4.24239273,-0.525587754,-5.651699132,-2.928742671,-7.866563615,-3.700729455,-8.65697393,-7.529522148,-9.568897684,-6.525295591,0.784464999,7.504662103,-2.545256549,6.53786847,-0.549037508
-1.152226819,3.653542309,0.734992319,-1.249110742,3.320764024,-0.046750155,-7.16899042,-3.560459749,-8.146107035,-4.087653599,-9.292447747,-7.965979795,-10.56833722,-7.023031286,-0.477706158,6.538693403,-1.292277848,7.236828384,-0.261902134
-0.453759303,3.929163766,0.810688258,-1.137201663,1.959296367,0.179147363,-8.445754939,-5.084638447,-7.699210585,-5.092828694,-8.140423967,-8.337122136,-10.31246236,-6.151570804,-1.837517651,5.980538778,0.451875857,7.096074595,-0.783556994
-0.215452316,3.803590566,0.945240128,-0.416992998,0.244375267,0.013150584,-8.773747709,-7.095332473,-7.027333983,-6.604155442,-5.786008202,-8.202997655,-9.196449918,-4.399889201,-2.307022107,5.792389376,1.764474504,6.148758481,-2.079166372
-0.974747352,3.11460511,0.957977051,0.565832085,-1.443463579,-0.363180969,-7.992000141,-8.90208284,-6.5498077,-8.07165793,-3.291480897,-7.421369185,-7.749746141,-2.566657655,-1.531713485,5.588231587,2.093660671,5.025020154,-3.511749425
-2.361900083,2.377650596,0.969354817,1.492709286,-2.518750906,-0.498069663,-6.41292945,-9.737731783,-6.116353821,-8.669376633,-1.380947736,-6.039965646,-6.06006637,-1.177684802,0.134348598,5.075320237,1.521272712,4.300485494,-4.333324874
-3.482042812,2.285885572,1.246514414,2.316145491,-2.543359577,-0.024220086,-4.488424119,-9.12016613,-5.06832698,-7.712769782,-0.110015396,-4.19887229,-3.810681295,-0.281930919,1.949183737,4.343731068,0.568512364,4.073651984,-4.229955818
-3.675199442,3.084142613,1.92744552,3.2724262,-1.571825916,0.962015253,-2.561948883,-7.177803597,-2.815759662,-5.077258506,0.81761262,-2.13983557,-0.875979362,0.312925923,3.298227893,3.832317861,-0.216237632,4.087604177,-3.482482146
-2.97904453,4.394170865,2.909705412,4.676333334,-0.173001955,1.856109102,-0.87556486,-4.667322642,0.579360239,-1.311712154,1.541270583,-0.234670837,2.151579822,0.687281112,4.099557473,4.047690247,-0.544511082,4.174786154,-2.639782111
-1.942875159,5.622413427,4.005882979,6.663238465,0.93966065,1.945495153,0.310592825,-2.574365327,4.33795749,2.654923065,1.920422862,1.112810245,4.113069141,0.706271594,4.842744071,5.246416455,-0.4012187,4.52710997,-2.013736725
-1.044193781,6.528927555,5.185197649,9.054172313,1.40210445,0.979188618,0.746064256,-1.507622493,7.482969837,6.010249014,1.912585416,1.702325914,4.112218041,0.240850707,6.212695665,7.262163759,0.094975406,5.502668789,-1.444650194
-0.286766797,7.392959387,6.617888701,11.40879497,1.429162625,-0.555132013,0.428672417,-1.309094257,9.49439249,8.404522605,1.987649909,1.731145661,2.355067136,-0.547573112,8.521355872,9.544575286,0.776311058,7.152193003,-0.537438308
0.663451713,8.606108168,8.425900776,13.20496724,1.598192613,-1.712065334,-0.183536028,-1.194536521,10.54380163,9.927329236,3.006025058,1.727182262,0.223081588,-1.18622699,11.33007267,11.37061932,1.391213426,8.936115459,0.850343125
1.982937536,10.08493742,10.35157844,14.03164547,2.367759431,-1.752229813,-0.300109266,-0.354963362,11.13920656,10.80010449,5.491585255,2.183238115,-0.613522887,-1.208844944,13.55508768,12.13032526,1.577442321,9.9449912,2.315111701
3.352094102,11.09397729,11.68997103,13.71304071,3.719296086,-0.688767361,0.692021212,1.41189127,11.53609291,11.08258097,8.888228846,3.119624492,0.570841718,-0.557852183,14.03538408,11.5676688,0.992487645,9.48288107,3.094499967
4.126127234,10.7131078,11.64083333,12.34143978,5.189965857,0.713088301,2.684463641,3.509108463,11.45975719,10.63767036,11.55625519,3.917611237,2.933764096,0.286879193,12.21446272,9.868141866,-0.427328932,7.539819998,2.610114226
3.872061941,8.589200132,9.868587597,10.23137727,6.232764801,1.491550249,4.747674263,4.924823443,10.37797425,9.342679873,11.7159154,3.609229262,4.577663335,0.594416415,8.491545198,7.542559493,-2.299342329,4.765089147,0.930726508
2.772784574,5.322407045,6.834065819,7.814246189,6.586245751,1.173048006,5.656008351,4.893949198,8.052909432,7.313481707,8.71575862,1.482405242,3.85444878,-0.117622674,4.018144254,5.160934604,-3.928777552,1.976951909,-1.224342955
1.513234742,2.123988574,3.595943692,5.498719349,6.368184766,0.066791309,4.71003135,3.34891355,4.854555551,4.91667223,3.628531492,-2.387065763,0.509082074,-1.74607547,0.093958574,3.087167018,-4.717900802,-0.372711787,-2.950602886
0.736758964,-0.001062966,1.183306573,3.543606653,5.87248113,-1.030984014,2.246514345,0.871817737,1.550413708,2.559845802,-1.363411561,-7.040688747,-4.15396992,-3.667657251,-2.432669197,1.374513489,-4.563558323,-2.351745114,-3.728620454
0.550847644,-0.889290625,-0.013662374,2.003785296,5.296516126,-1.457750452,-0.56450493,-1.735244487,-1.22855377,0.461033486,-4.379834622,-11.06269607,-8.14430839,-5.129571325,-3.410109918,-0.126162835,-3.922327535,-4.249383045,-3.669984226
0.513217064,-1.17533485,-0.389894338,0.783294218,4.643463073,-1.132909134,-2.489288462,-3.883482633,-3.358556841,-1.392177993,-4.987855625,-13.27617162,-10.0091007,-5.660971811,-3.218389424,-1.548107584,-3.469649065,-6.149465321,-3.294161537
0.09218319,-1.650576296,-0.717458699,-0.236008322,3.841348721,-0.512466543,-2.986394378,-5.337959207,-5.112288089,-3.075496,-4.229794699,-13.30391924,-9.543264798,-5.235745214,-2.41716654,-2.859044452,-3.607461978,-7.778489425,-3.072488036
-0.826372818,-2.590201873,-1.51243367,-1.078410935,2.907548602,-0.147462639,-2.407505952,-6.081428084,-6.706890002,-4.536244562,-3.590763439,-11.69240385,-7.606670623,-4.150093808,-1.482564073,-3.886725376,-4.200427948,-8.745384332,-3.131184034
-1.838319158,-3.596675648,-2.65689591,-1.652342606,1.96648344,-0.247389157,-1.567767707,-6.152741462,-7.965881988,-5.574940792,-3.802130123,-9.563723602,-5.360083669,-2.78930132,-0.735432999,-4.466383506,-4.73154157,-8.915538514,-3.320944681
-2.396733266,-4.028271408,-3.531164384,-1.829614957,1.106032241,-0.599093389,-1.098975608,-5.658336427,-8.430802841,-6.012631671,-4.443545267,-8.008393554,-3.569153065,-1.477915203,-0.360234329,-4.554305727,-4.725928138,-8.546751397,-3.518370328
-2.301140099,-3.582696389,-3.50877675,-1.55091139,0.246961272,-0.856407253,-1.104408883,-4.89438687,-7.819743732,-5.857499488,-4.566571557,-7.533301968,-2.406197406,-0.460559893,-0.375061439,-4.202716947,-4.089920589,-8.056393989,-3.832568562
-1.849969712,-2.520707971,-2.413364947,-0.865414865,-0.796222057,-0.899902805,-1.302481058,-4.334633834,-6.385741756,-5.275520471,-3.677619267,-7.822128675,-1.683723318,0.082516834,-0.551259261,-3.445931481,-3.114994517,-7.650329324,-4.509062202
-1.530339765,-1.384778561,-0.614020132,0.12187749,-2.077676369,-0.936420107,-1.405999153,-4.344414199,-4.804070227,-4.371514284,-2.158685287,-7.913809653,-1.147797621,0.079794937,-0.424255657,-2.250385871,-2.196868072,-7.179590193,-5.629701127
-1.547627886,-0.528656817,1.254492758,1.332714727,-3.324888839,-1.268604538,-1.333648229,-4.792872926,-3.649494131,-3.005502774,-0.777306859,-6.7271574,-0.567000475,-0.355412928,0.490239548,-0.61898702,-1.546489457,-6.370060113,-6.913638468
-1.634826217,0.095570439,2.688904655,2.738230075,-4.011175648,-1.969035666,-1.096616944,-4.941721656,-2.916280259,-0.877581982,0.192319153,-3.702654702,0.31491553,-0.937938583,2.355611042,1.237276748,-1.131558724,-5.201167759,-7.839731802
-1.311181493,0.738006526,3.544585877,4.295305987,-3.700884274,-2.771284469,-0.576066891,-3.843570594,-2.021070104,2.124892832,1.340969155,0.756939197,1.716134839,-1.377692277,4.803761391,2.862517395,-0.842815399,-4.045659921,-8.01219679
-0.340895921,1.495425407,3.995624023,5.865768835,-2.412357283,-3.283573828,0.472506243,-1.058094228,-0.314342653,5.60415978,3.558999321,5.323442985,3.558579324,-1.602363727,7.067033431,3.770790728,-0.669794003,-3.392273972,-7.453321254
1.035518382,2.188594349,4.344510092,7.219480634,-0.68546975,-3.334475404,2.107101301,2.850071887,2.321650043,8.687455414,6.995787317,8.32366364,5.246117206,-1.835073263,8.407775916,3.793942813,-0.690243105,-3.374806214,-6.553063591
2.304467537,2.599031835,4.856903076,8.15043068,0.743824071,-3.139860236,3.875783038,6.493522184,5.292245302,10.48972521,10.51461207,8.615587703,5.818822504,-2.411986882,8.543215698,3.27159428,-0.894012861,-3.550949033,-5.704634047
3.118372166,2.803019423,5.692893337,8.619179584,1.440328839,-3.137090736,4.8878052,8.494976442,7.675448138,10.69828812,12.25660769,6.275094822,4.549291376,-3.449948491,7.746046604,2.86990962,-1.054757067,-3.189283853,-4.945096915
3.559094546,3.21508434,6.881089829,8.786923215,1.563464475,-3.621324551,4.375568419,8.408935977,8.846076907,9.819842235,10.98391508,2.641303777,1.604610282,-4.63996335,6.56053052,3.113217516,-0.835195094,-1.875879044,-3.936379924
3.987107731,4.225646944,8.270511463,8.884334087,1.731928166,-4.485911241,2.367393621,7.044502813,8.832271253,8.856032897,7.151023855,-0.381495692,-1.791967414,-5.378972838,5.391930919,3.982564282,-0.082077079,0.062420483,-2.335104558
4.629011874,5.734808217,9.49173439,9.004317226,2.562632472,-5.276468954,-0.110060973,5.918074302,8.153736517,8.615334078,2.793274723,-1.389871331,-3.965226841,-5.18520608,4.319379642,4.922080743,0.94630971,1.706545314,-0.248222812
5.29906659,7.040569516,10.03274517,8.991066145,4.228217481,-5.507483448,-1.578404814,6.211856021,7.336365025,9.163967249,0.233929118,-0.261569037,-3.828497647,-4.088672115,3.260150067,5.274790211,1.660603603,2.187261907,1.637845606
5.521951847,7.262041816,9.475431428,8.532354941,6.340068296,-4.989171753,-1.088500034,7.981499085,6.535047845,9.815802611,0.54969673,1.853644391,-1.629527594,-2.674745243,2.276382542,4.801741375,1.518352254,1.318735924,2.424212201
4.947854191,5.99962982,7.778652113,7.393068312,8.196419202,-3.930956275,1.071818006,10.15532218,5.540389041,9.64184163,2.928152649,3.325366155,1.171804378,-1.7173739,1.678049992,3.84939831,0.421238472,-0.285960971,1.625311244
3.678851899,3.68979927,5.389944042,5.601710989,9.170717147,-2.786800353,3.494531001,11.27015837,4.075188125,8.092046262,5.351072384,3.083457918,2.840742043,-1.665522112,1.777328592,3.021659336,-1.186884771,-1.700391989,-0.421123752
2.208651401,1.340028487,3.049245029,3.436810089,8.963249869,-2.000220955,4.540417456,10.37624348,2.058811723,5.281274741,6.030005531,1.217467528,2.45968979,-2.369280776,2.512264252,2.648126863,-2.605127442,-2.355494039,-2.698459959
1.035493318,-0.155119876,1.378522033,1.234561038,7.609465027,-1.83592369,3.374289193,7.501336688,-0.377049824,1.808380399,4.51423132,-1.225626614,0.413041579,-3.24309725,3.337235802,2.53433292,-3.317450249,-2.338993816,-4.136582096
0.306265019,-0.563562224,0.542454691,-0.800747821,5.352213708,-2.357791148,0.430342932,3.472613164,-3.042017434,-1.641397945,1.746674879,-3.030116849,-2.018815351,-3.717200337,3.578172705,2.239942092,-3.2477414,-2.106049826,-4.278559103
-0.187547991,-0.301099752,0.238447502,-2.607071847,2.549039248,-3.47490613,-2.960954081,-0.624530947,-5.763819917,-4.547997872,-0.795988086,-3.581826916,-3.576403876,-3.612143009,3.02126086,1.647333586,-2.659545282,-1.904850931,-3.51418138
-0.676954402,0.086028835,0.02768684,-4.09554183,-0.332458614,-4.961377881,-5.443691959,-3.908259715,-8.274684674,-6.52763663,-2.104905376,-3.093768391,-3.74852007,-3.160874662,2.227945199,1.282166871,-1.839623281,-1.465533914,-2.7272949
-1.079549166,0.455598781,-0.254186395,-4.992316355,-2.732624014,-6.45534736,-6.370512069,-5.863340806,-10.07592323,-7.213461677,-2.063203272,-2.222309753,-2.853608218,-2.712109208,2.226198058,2.021647993,-0.87138125,-0.252215567,-2.630159345
-0.99844776,1.148790417,-0.338203247,-4.900607062,-4.150615168,-7.528157943,-5.970942382,-6.319525889,-10.55976628,-6.328395589,-1.171601653,-1.472769068,-1.576321519,-2.408118361,3.728571286,4.357477038,0.311349366,1.944890746,-3.267483381
-0.07703438,2.572281734,0.254051945,-3.598874055,-4.400884807,-7.873173925,-4.999178674,-5.467278189,-9.444631747,-3.995326221,-0.018080838,-0.896271045,-0.447879408,-2.121050465,6.46290134,7.817881721,1.682078085,4.631899177,-4.022519525
1.613661329,4.694272093,1.78412613,-1.344539236,-3.78270923,-7.521133303,-4.237771883,-3.942008805,-7.208687771,-0.994245834,1.001483829,-0.267736718,0.317844436,-1.675245262,9.184118511,11.09397438,2.967616264,6.840110412,-4.081332301
3.527628023,6.936188397,4.014523878,1.116589222,-2.967844737,-6.893388332,-4.195759694,-2.764078393,-5.06504892,1.405937126,1.602898984,0.503569497,0.631396439,-1.115288769,10.44026896,12.86810818,3.774647223,7.826245033,-2.998656955
5.011237413,8.573461906,6.301764181,2.931642194,-2.609606398,-6.581102164,-5.055443583,-2.933226515,-4.316850553,2.106522354,1.476008851,1.164955441,0.315416603,-0.741000662,9.57220445,12.74478698,3.913882488,7.674018645,-0.976296016
5.78189754,9.291381299,7.995529088,3.678621701,-2.919536772,-6.954439725,-6.703801603,-4.791807202,-5.463763269,0.93345594,0.408881879,1.330951537,-0.826308442,-0.852788566,7.214412717,11.54867584,3.627914392,7.271370239,1.295720323
6.101585527,9.39959198,8.836625585,3.649540373,-3.526963885,-7.879754944,-8.722434766,-7.605825002,-7.738961275,-1.106947987,-1.371595425,0.918709907,-2.70340901,-1.430888205,4.91620363,10.72230628,3.483327303,7.639736263,3.075466215
6.489095028,9.516032082,9.059014436,3.621086773,-3.748551546,-8.782572869,-10.40606523,-9.802794542,-9.51608572,-2.371911665,-3.034013451,0.376373463,-4.742288925,-2.054392658,4.147635824,11.26398344,3.969318106,9.133014731,3.967073325
7.219448026,10.00513595,9.141777546,4.245525361,-3.086004861,-9.042362996,-10.97399865,-9.867640671,-9.377026497,-1.630782537,-3.486559113,0.430028212,-6.09485735,-2.17043261,5.391223074,13.01556258,5.108453177,11.14465987,4.043735169
8.047285354,10.66669364,9.421077914,5.512620764,-1.589600849,-8.436589752,-9.989652946,-7.351188803,-7.089649084,1.1001971,-2.118721732,1.497260478,-6.183655047,-1.517801808,7.923154787,14.83165343,6.39538304,12.55457275,3.678764246
8.394899534,10.93493567,9.851917493,6.705965807,0.175340919,-7.29525388,-7.741216859,-3.262498486,-3.774940253,4.540184379,0.602937319,3.236231328,-5.168616752,-0.361101649,10.36041193,15.46209871,7.121302031,12.550919,3.253739141
7.839132053,10.38428197,10.06275491,6.904275712,1.519357899,-6.245021215,-5.242950303,0.494227606,-1.148511098,6.956246381,3.218802583,4.630834368,-3.925415499,0.665382032,11.52038301,14.43226685,6.834239639,11.17135837,2.949580605
6.473901844,9.071928196,9.61531394,5.649888813,2.073897459,-5.744421761,-3.740395407,2.281698993,-0.420325041,7.213071546,4.082304124,4.597173186,-3.499556943,0.989176414,10.99867553,12.25212978,5.587834655,9.15805415,2.724006304
4.840155913,7.415838596,8.257976119,3.271585941,1.96833221,-5.7737631,-3.992413292,1.679038386,-1.662184366,5.32397478,2.354763911,2.675677333,-4.42883775,0.471175637,9.170134728,9.866666623,3.819376685,7.291996772,2.437003284
3.494689921,5.748342105,6.020448417,0.623092729,1.643699385,-5.91013647,-5.823451709,-0.432216268,-4.034114475,2.1894403,-1.51351548,-0.701071329,-6.438965619,-0.558879217,6.766465719,7.876565751,2.001807564,5.784389228,2.004559147
2.596116269,3.990687358,3.154254199,-1.538031513,1.485802658,-5.701449438,-8.274269336,-2.640225678,-6.565835496,-1.160955621,-6.131611787,-4.538977833,-8.715555254,-1.597080551,4.421584205,6.197689335,0.373499928,4.222479922,1.474137603
1.855729906,1.780178391,0.026990561,-3.032363328,1.567915273,-5.019385971,-10.2397184,-3.999402516,-8.801798677,-4.182236731,-10.04115997,-7.919999171,-10.49960582,-2.323851538,2.470900357,4.397932397,-1.059185276,2.08056425,0.989528818
0.871790113,-1.048572641,-2.946439949,-4.238948351,1.665396094,-4.111615523,-11.12411518,-4.511231477,-10.83452631,-6.858207928,-12.46481619,-10.44474543,-11.5274493,-2.738498266,1.008093482,2.342895196,-2.314046689,-0.666763904,0.68836525
-0.464286081,-4.078824833,-5.347852068,-5.636126246,1.472083529,-3.343806205,-11.06157859,-4.820603086,-12.8381296,-9.28326584,-13.46537276,-12.18693449,-12.01404125,-3.00354239,0.015534199,0.524854136,-3.263026475,-3.361854554,0.610251276
-1.845718395,-6.419821648,-6.836407455,-7.317556084,0.812044713,-2.883143216,-10.61505518,-5.493073574,-14.6347441,-11.26346183,-13.56241229,-13.30059154,-12.28241804,-3.191118982,-0.578601562,-0.24829054,-3.682165552,-5.070932288,0.677118434
-2.802380465,-7.280617386,-7.275554339,-8.887267383,-0.30410668,-2.603986457,-10.26577727,-6.512561249,-15.72493648,-12.32906124,-13.23602299,-13.70053498,-12.4136276,-3.190446747,-0.903392812,0.455054278,-3.474823313,-5.250389732,0.756027467
-3.088768783,-6.560194087,-6.823792592,-9.787806181,-1.760556198,-2.278695823,-10.10823785,-7.364122857,-15.72111295,-12.11595844,-12.70619358,-13.12598685,-12.21279762,-2.860395382,-1.107624814,2.226447777,-2.841707955,-4.141616099,0.758294808
-2.867308378,-4.959770554,-5.884121213,-9.740949408,-3.422557335,-1.854338273,-9.922219144,-7.526760759,-14.72116932,-10.71141667,-12.02119559,-11.50731844,-11.46268174,-2.263094744,-1.250412448,4.008582946,-2.20659802,-2.597569387,0.70110068
-2.54530156,-3.503244482,-4.898713927,-8.90743121,-5.130978601,-1.544391861,-9.453069974,-6.88150344,-13.225537,-8.603396916,-11.19488395,-9.245585015,-10.1786393,-1.725125425,-1.216635221,4.817660943,-1.92500455,-1.497095116,0.680696114
-2.431148991,-2.833804856,-4.109404656,-7.653649887,-6.641704107,-1.643377774,-8.603011189,-5.693902252,-11.66188795,-6.269869457,-10.17345187,-7.072303456,-8.615408419,-1.627289561,-0.776777389,4.429482578,-2.007465571,-1.199721317,0.77195626
-2.515825997,-2.830422514,-3.455553223,-6.18528644,-7.632406432,-2.235000559,-7.403442318,-4.272610732,-9.989199517,-3.811830485,-8.702934338,-5.542508594,-7.046363468,-2.083723035,0.217985701,3.49543929,-2.095828831,-1.417132569,0.933658906
-2.549027211,-2.816648432,-2.68921912,-4.426818458,-7.84472667,-3.069755508,-5.898850206,-2.704671412,-7.804804584,-1.013417196,-6.370434402,-4.585418033,-5.564748204,-2.797508694,1.669418854,3.022300491,-1.730597305,-1.528270946,1.007475298
-2.307822019,-2.156175277,-1.621230326,-2.27959956,-7.282582697,-3.738103274,-4.150526245,-0.949555033,-4.901121895,2.193317285,-2.958552963,-3.546399823,-4.120806377,-3.24865973,3.267197585,3.647484861,-0.710164633,-1.046407134,0.830701594
-1.799827121,-0.747188236,-0.310142998,-0.003991052,-6.291525727,-3.994287517,-2.388480608,0.830141982,-1.753558568,5.302475696,1.111028792,-1.760141919,-2.749678819,-3.086247589,4.723678208,5.261694656,0.732801404,0.103145947,0.381863105
-1.231044823,0.943288877,0.943740649,1.692630161,-5.405320105,-3.940250165,-1.104004668,2.107152379,0.580441172,7.320331007,4.691792022,0.782443071,-1.72468237,-2.40615133,6.002407673,7.203774393,2.068174382,1.626204374,-0.170371875
-0.799893646,2.263893424,1.778950641,2.046307772,-5.028518557,-3.896145922,-0.858053455,2.27228597,1.170537911,7.408614553,6.434917456,3.252337033,-1.419032491,-1.672995923,7.304521879,8.783526302,2.808622713,3.098480614,-0.583669375
-0.531000494,2.823540811,1.976830106,0.844556131,-5.175370632,-4.065480504,-1.845301098,1.193149807,-0.022744635,5.601290554,5.661476253,4.512018523,-1.947880986,-1.335132541,8.778315258,9.674269349,2.801565324,4.179924366,-0.75359598
-0.301814145,2.65191227,1.540535074,-1.268391386,-5.468256816,-4.298608995,-3.564102648,-0.460728511,-2.004711884,2.959206079,2.93864238,3.996378607,-2.921407736,-1.444022774,10.1853075,9.90616899,2.278289885,4.685627686,-0.8443113
-0.014818297,2.022191623,0.6226143,-3.123795323,-5.412749125,-4.186986196,-4.971172943,-1.524994002,-3.425190968,0.928741394,-0.165999862,2.244734107,-3.604751355,-1.599565142,10.84385183,9.577686785,1.657900632,4.554069893,-1.195264968
0.272970959,1.166471281,-0.600434772,-3.822441142,-4.754770287,-3.434018164,-5.149057506,-1.163766328,-3.594135896,0.32322742,-2.082109407,0.598418867,-3.447894161,-1.284362443,9.975084178,8.63160447,1.270772277,3.816599776,-2.032105818
0.400986961,0.150716675,-1.989063501,-3.39930718,-3.658384057,-2.19221708,-4.046722567,0.396390738,-3.035574997,0.705569535,-2.303385408,0.214103883,-2.596214608,-0.331055544,7.243093046,6.92944116,1.190072695,2.607889979,-3.193612873
0.287847106,-1.02804275,-3.409727109,-2.814955222,-2.576828187,-1.058691727,-2.687450609,1.847902727,-3.122176605,0.690782327,-1.727066451,1.110231454,-1.941637192,0.851626773,3.092013463,4.536091662,1.250309638,1.165323166,-4.120735538
0.058951373,-2.283893987,-4.687187191,-3.234014408,-1.920498925,-0.692118743,-2.575422319,1.613019574,-5.054882616,-1.012121354,-1.984277531,2.000842097,-2.600193226,1.488793997,-1.39256537,1.904598388,1.195654612,-0.243292462,-4.180559202
-0.023314556,-3.418312257,-5.628330688,-5.118841356,-1.774205704,-1.332371524,-4.648193777,-1.054167596,-8.960010486,-4.585487666,-4.234930273,1.118004311,-5.152972175,0.945729688,-5.024180836,-0.269943828,0.839569534,-1.44271823,-3.13089887
0.216719034,-4.259200177,-6.121161205,-7.83341658,-1.870712354,-2.600849867,-8.523988959,-5.474780428,-13.76072222,-8.880087381,-8.302179631,-2.514768137,-9.192811147,-0.833597431,-7.094554977,-1.457737334,0.15001514,-2.42705304,-1.382392738
0.685257092,-4.809690754,-6.219449189,-10.0706979,-1.829641295,-3.74853627,-12.62784091,-9.908409967,-17.85904899,-12.15271649,-12.75416768,-8.259305153,-13.50396132,-3.265060353,-7.621016755,-1.646023546,-0.754587763,-3.314049694,0.174710295
1.046479525,-5.240491165,-6.119467266,-10.7835399,-1.475305442,-4.169210021,-15.14738072,-12.62194752,-20.06616997,-13.21364438,-15.82713964,-14.09617942,-16.73784796,-5.468805166,-7.1564613,-1.343475949,-1.667417262,-4.206285549,0.701590559
0.949442235,-5.720898999,-6.029547743,-9.917832697,-0.998117448,-3.791046065,-15.15386606,-12.9139124,-20.11662911,-12.15049696,-16.49133862,-17.78177094,-18.10607383,-6.766234062,-6.363636135,-1.218233788,-2.376661765,-5.075030726,-0.057239897
0.27317759,-6.25088644,-6.036082862,-8.414099271,-0.847582343,-3.063390356,-13.10853138,-11.4152392,-18.52330652,-10.14980847,-14.93223562,-18.15616946,-17.64991753,-6.99915478,-5.668344629,-1.636641456,-2.742817155,-5.761673714,-1.621190935
-0.80116787,-6.659571697,-6.078615883,-7.513573242,-1.438483623,-2.576195069,-10.44184924,-9.541177605,-16.06511419,-8.623275474,-12.22499016,-15.7466143,-16.00108949,-6.501774614,-5.172167832,-2.436327379,-2.743601235,-6.082250103,-3.112897365
-1.929962772,-6.771142716,-6.047696927,-7.915456811,-2.87297514,-2.624711635,-8.566523522,-8.554446798,-13.39048013,-8.317471381,-9.574985027,-12.32025724,-13.91029037,-5.807745374,-4.777288252,-3.076089055,-2.46226038,-5.931971262,-3.842574823
-2.82529713,-6.572730077,-5.903868699,-9.39137139,-4.853987864,-3.046907069,-8.043313239,-8.885729027,-10.96153385,-9.005849371,-7.715702321,-9.747700367,-11.90594825,-5.323720562,-4.352299574,-3.025856959,-2.019616617,-5.306083252,-3.71602729
-3.37703262,-6.217080777,-5.696701136,-11.06052505,-6.826363313,-3.421056136,-8.420563079,-10.06725009,-9.164254879,-9.852675118,-6.789267462,-8.941168835,-10.23537158,-5.163469043,-3.815715663,-2.11123578,-1.492867145,-4.25531396,-3.191808272
-3.614502113,-5.859134729,-5.463141124,-12.02184468,-8.239318573,-3.425181831,-8.723881854,-11.16327848,-8.272870496,-10.04560424,-6.583780174,-9.48860297,-8.966218739,-5.182512202,-3.136718796,-0.597554498,-0.885793506,-2.86462208,-2.862257547
-3.589960801,-5.494568465,-5.112356873,-11.83613202,-8.77054859,-3.059163748,-8.13674144,-11.30889561,-8.197063595,-9.196971882,-6.772915426,-10.08663319,-8.041545223,-5.122949072,-2.314022259,1.000105452,-0.180544026,-1.300624385,-3.006205986
-3.312246301,-4.969741936,-4.434609004,-10.57400241,-8.405908104,-2.57779316,-6.395665442,-10.04455045,-8.286450035,-7.32579267,-6.951520831,-9.385739444,-7.231589121,-4.756581398,-1.359072168,2.225124461,0.57367649,0.140876328,-3.447403186
-2.778340439,-4.161076191,-3.265666074,-8.552073055,-7.373086493,-2.235570421,-3.757139747,-7.396412546,-7.534897092,-4.62662501,-6.579606063,-6.713333521,-6.121956148,-3.975346041,-0.262464308,2.912610422,1.228422791,1.106665692,-3.779895085
-2.039478113,-3.146610962,-1.686132848,-6.100890726,-6.005745029,-2.085043436,-0.738895159,-3.825474499,-5.20319801,-1.354108241,-5.092053888,-2.347343204,-4.295876912,-2.834729909,1.052534128,3.231721922,1.618047154,1.399358185,-3.726566485
-1.212629625,-2.191772732,-0.078072027,-3.575042117,-4.623886363,-1.99426278,2.089143069,-0.129879986,-1.443062505,2.06926833,-2.253068019,2.661784776,-1.670602063,-1.556451185,2.714426918,3.533347861,1.708077211,1.17951201,-3.322456406
-0.424673812,-1.553764559,1.0384562,-1.494523053,-3.469942809,-1.83941433,4.18156065,2.745225341,2.617243236,4.929829559,1.486710732,6.92796677,1.272884275,-0.468806996,4.749959072,4.087966679,1.676495633,0.932567162,-2.804704229
0.23788494,-1.296859058,1.288248094,-0.526531486,-2.68584536,-1.674848377,5.086170059,4.0524929,5.50639496,6.374822898,5.002824213,9.232830577,3.631814488,0.129636024,6.848787122,4.849910099,1.819671785,1.126148634,-2.362294677
0.707113208,-1.310340131,0.640785743,-1.161929547,-2.296585367,-1.712649549,4.62377537,3.64603594,6.368402874,5.884243146,7.023449917,8.978428262,4.595955483,0.13521738,8.26874373,5.393591141,2.312280294,1.767148758,-2.0064741
0.869097292,-1.517501208,-0.610056122,-3.27876316,-2.189008357,-2.121628694,3.099213041,2.173710776,5.545119891,3.749829088,6.891361313,6.485385017,4.007079466,-0.275830916,8.106744896,5.108584976,2.994751121,2.236586607,-1.678407495
0.563061462,-2.051144384,-2.047613032,-5.98998972,-2.113798388,-2.822011886,1.305703158,0.817979927,4.325935408,1.122751192,5.027874435,2.9857372,2.536272769,-0.733366816,5.90622362,3.598654704,3.381051219,1.636022438,-1.458028333
-0.292858533,-3.170875239,-3.344164171,-8.022554931,-1.753734735,-3.465256767,0.173088948,0.630998312,4.026730798,-0.548632575,2.719728145,0.185450287,1.29710314,-0.907763935,2.219132759,1.061366951,2.934107257,-0.518508296,-1.620488518
-1.528853381,-4.939493252,-4.334922775,-8.462910345,-0.869530714,-3.640297156,0.207044255,1.8486112,5.062708785,-0.402420789,1.321119815,-0.529658139,1.129677196,-0.742289288,-1.386839165,-1.640211186,1.44626214,-3.760586643,-2.423913149
-2.684541091,-6.94617409,-4.953509134,-7.368306017,0.530094315,-3.162753434,1.107241871,3.664503856,6.670431621,1.22199626,1.393132478,1.118540537,2.049490668,-0.505532472,-3.08180082,-3.358282723,-0.744136537,-6.769461229,-3.786038207
-3.217240449,-8.391776437,-5.154305549,-5.779993261,2.098746815,-2.2311117,1.891461342,4.674721725,7.43871123,2.903578218,2.360359379,4.022007398,3.24456161,-0.603699227,-1.911272784,-3.328219451,-2.874512019,-8.131285787,-5.161764489
-2.859566748,-8.568477213,-4.932073497,-5.081128149,3.236413467,-1.327311989,1.49914021,3.740189711,6.233121304,2.976298507,2.908885027,6.212785043,3.609395395,-1.276278648,1.468345845,-1.694551702,-4.158609095,-7.266556912,-5.805557706
-1.853877302,-7.397143687,-4.413035126,-6.112314955,3.352843214,-0.922601256,-0.522326194,0.709112795,2.880466872,0.570304949,1.850784479,5.993802767,2.433530088,-2.40066004,5.081284098,0.514765345,-4.208512983,-4.837793555,-5.278577061
-0.833937616,-5.567852296,-3.87796725,-8.631043297,2.194379646,-1.185277071,-3.723580774,-3.469609703,-1.768982596,-3.804627322,-1.105483869,3.014509236,-0.20785062,-3.558856011,6.87218226,2.023826419,-3.20963757,-2.300238505,-3.815307074
-0.387991772,-4.104999459,-3.615873179,-11.45354186,0.044391033,-1.882424305,-7.041167972,-7.293480581,-6.323071461,-8.499235789,-5.139170437,-1.424885127,-3.558648266,-4.320115951,6.072515431,2.154473876,-1.759053048,-0.900741235,-2.226890169
-0.617256711,-3.646383037,-3.679015315,-13.14968181,-2.352238229,-2.535718155,-9.43637338,-9.53428785,-9.497274928,-11.62904644,-8.742303216,-5.103056434,-6.626192933,-4.523961754,3.69712509,1.277977577,-0.504356021,-0.862459363,-1.364067255
-1.049659927,-3.991006518,-3.755143216,-12.82387882,-4.138386915,-2.727862171,-10.43144932,-9.827720925,-10.58695406,-12.08757633,-10.49959617,-6.216827046,-8.632142927,-4.3482938,1.770539554,0.517318183,0.173195588,-1.357024243,-1.51990286
-1.010004825,-4.285932186,-3.330492737,-10.52650266,-4.788399229,-2.366148884,-10.22055565,-8.722150692,-9.641455292,-10.08728364,-9.785645876,-4.470439717,-9.231156663,-4.119971162,1.833294774,0.895123848,0.26188033,-1.254630562,-2.22339066
-0.177299362,-3.717930946,-2.088110428,-7.138255541,-4.384493509,-1.740840509,-9.3782275,-7.255910868,-7.389294349,-6.96651189,-7.045927078,-1.203204493,-8.489382277,-4.0310858,3.842461094,2.556559687,0.011315476,-0.040902686,-2.58825184
1.11375204,-2.16450052,-0.253729148,-3.897825995,-3.547045152,-1.341414009,-8.453487686,-6.38256605,-4.974044527,-4.431227319,-3.56880341,1.5103464,-6.764324113,-3.994399382,6.288315753,4.657154643,-0.258948401,1.818126231,-1.959190138
2.08521937,-0.290407149,1.417255223,-1.878299284,-3.049117176,-1.537934959,-7.732794721,-6.558940391,-3.519204869,-3.680937386,-0.886481677,2.164898188,-4.595811748,-3.749006012,7.407596731,6.000171757,-0.305181911,3.312550557,-0.376840885
2.09250352,0.969408872,2.070434811,-1.633891076,-3.348270422,-2.318417474,-7.240847144,-7.6312431,-3.603496779,-4.872544697,-0.081091874,0.668311319,-2.593139279,-3.11535658,6.525283022,5.926294326,-0.017858686,3.722033418,1.464743951
1.115696972,1.101968544,1.324686238,-3.077335065,-4.325870964,-3.249233182,-6.850183817,-8.978152038,-4.888304185,-7.152140928,-1.300064663,-1.777215065,-1.251773959,-2.175096356,4.482967266,4.766558659,0.573793896,3.14225012,2.699748486
-0.222400242,0.322120885,-0.435200676,-5.556408093,-5.391089572,-3.701589016,-6.355949789,-9.80195401,-6.202473408,-9.182943419,-3.704378551,-3.576948087,-0.722079052,-1.219232981,2.869317941,3.52607654,1.315065755,2.293542378,2.82832246
-1.122586702,-0.720113673,-2.282805017,-8.095873884,-5.87020169,-3.225581763,-5.506043535,-9.46957219,-6.181660384,-9.867716837,-5.892101196,-3.750106862,-0.683336149,-0.510013053,2.733544664,3.082203462,1.963978538,1.824909175,1.933657879
-1.186365208,-1.529732179,-3.342911106,-9.769759293,-5.421830639,-1.848528835,-4.081600036,-7.808602682,-4.153013463,-8.894268184,-6.607244305,-2.384255966,-0.485101151,-0.066228689,3.845299657,3.553509766,2.278228908,1.746545648,0.495203362
-0.653501191,-2.119940709,-3.321173691,-10.09963698,-4.215881944,-0.101127306,-2.071166728,-5.237388259,-0.673117895,-6.837568333,-5.372932958,-0.351764206,0.452698401,0.332666951,5.062942749,4.325760879,2.132649674,1.488639355,-0.970106705
-0.137485991,-2.834326567,-2.589860551,-9.285641376,-2.783524301,1.265679888,0.171597644,-2.621058522,2.730157224,-4.781811858,-2.702313767,1.370522857,2.215959893,0.913266645,5.42414199,4.66173766,1.593146381,0.520825317,-2.130126355
-0.1030513,-3.836800597,-1.798013584,-8.092644741,-1.664301153,1.709704677,1.973567709,-0.863751516,4.517249774,-3.67780542,0.229348592,2.244232518,4.261354439,1.638652127,4.9822526,4.347436679,0.876819674,-1.032134894,-2.81022757
-0.518749432,-4.773309313,-1.341042622,-7.394727341,-1.093988337,1.202632183,2.661261592,-0.429084131,4.1518878,-3.79863684,2.246641508,2.270449843,5.711648055,2.145182021,4.668784859,3.829898516,0.209744339,-2.346121217,-2.864161494
-0.944865266,-4.956410836,-1.113876294,-7.627657869,-0.923143335,0.214683127,1.989081136,-1.080981919,2.4296081,-4.607378448,2.767057256,1.747369687,5.913598612,1.975059885,5.331402102,3.761825568,-0.313460885,-2.499468366,-2.167921385
-0.94467549,-3.948320934,-0.717801674,-8.511023821,-0.784856662,-0.603593164,0.370685719,-2.034883006,0.864628805,-5.113979126,1.991418694,1.009765444,4.882129986,0.954087013,6.824502575,4.37939416,-0.75377041,-1.232430443,-0.792454373
-0.454144947,-2.040834588,0.089190498,-9.251361343,-0.369298657,-0.818332386,-1.291525974,-2.442570092,0.593200382,-4.504394472,0.644760535,0.370626184,3.318627944,-0.57264604,7.989333315,5.265197481,-1.21730106,0.773104304,0.827935352
0.188113531,-0.187788218,1.099622055,-9.10447872,0.382247642,-0.418953168,-2.099852323,-1.895815915,1.621390216,-2.656948229,-0.490850765,0.19913188,2.186445337,-1.853993989,7.587838935,5.694454217,-1.715013845,2.339585418,1.976662773
0.542051927,0.60497574,1.772946133,-7.905730853,1.268132416,0.281920174,-1.658846107,-0.619631905,2.962242588,-0.23362492,-0.930629627,0.897782766,2.130402037,-2.157277001,5.412599803,5.250332503,-2.130539186,2.614298,2.032732243
0.418130602,-0.031067526,1.658644319,-6.190205147,1.971919038,0.937917956,-0.25915755,0.742964671,3.496433468,1.695787785,-0.570262029,2.652349971,3.11630876,-1.236807089,2.608314153,4.170636314,-2.336010896,1.614856355,0.902257888
-0.01326618,-1.598192849,0.766004287,-4.824158924,2.245395425,1.400682946,1.335432717,1.55879491,2.83426226,2.250671705,0.42079464,5.111418151,4.492518203,0.466928104,0.876531332,3.136523126,-2.349305492,0.093118658,-0.850212959
-0.415175946,-3.135133112,-0.429169508,-4.428109719,2.017861746,1.722737256,2.312125843,1.527980249,1.506312476,1.195476019,1.710418891,7.324696714,5.3879871,2.039752368,1.165744402,2.703019211,-2.370150767,-1.123295377,-2.327174352
-0.582369636,-3.92191006,-1.344996144,-5.013117601,1.393588962,1.973517657,2.16637855,0.721995986,0.403497718,-0.988266407,2.8335106,8.135867001,5.173815766,2.59382933,2.895739404,2.868819553,-2.632112598,-1.746080614,-2.876356262
-0.58549,-3.938742135,-1.726398588,-6.071268445,0.573407345,2.075966348,0.837367176,-0.59034195,0.007327649,-3.403851442,3.227568522,6.864928634,3.735026112,1.752200529,4.35465669,3.139056625,-3.182732669,-2.114215101,-2.49685179
-0.667881924,-3.759594877,-1.808948189,-7.010880027,-0.23702152,1.84300208,-1.343168371,-2.114576575,0.075328915,-5.199788385,2.409622738,3.824261438,1.464860738,-0.163556927,3.976384725,2.993004849,-3.793266137,-2.746625986,-1.76735591
-1.025190789,-4.02514126,-2.102511121,-7.584613857,-0.890981715,1.194918572,-3.774131207,-3.568595854,-0.004178108,-5.934739929,0.283852646,0.25746106,-0.943885124,-2.330235148,1.512955779,2.326581304,-4.106164801,-3.79880381,-1.364046737
-1.675508261,-4.948223723,-2.986843748,-8.001258429,-1.329859728,0.347990785,-5.732587276,-4.652945355,-0.577682036,-5.703928095,-2.634147157,-2.328991616,-2.777687611,-3.863379606,-1.788242668,1.490417708,-3.920252751,-4.906809969,-1.557020408
-2.508712188,-6.222851256,-4.437585334,-8.680664279,-1.586746896,-0.238823989,-6.584650024,-5.112712413,-1.41991889,-5.030190899,-5.330190059,-3.03274845,-3.550716179,-4.239468808,-4.107084764,0.92370893,-3.373762246,-5.530890435,-2.075577395
-3.420905147,-7.34102005,-6.0650129,-9.877142291,-1.76692258,-0.169010582,-6.066270022,-4.930579848,-2.016690119,-4.60529918,-6.78178584,-2.055052631,-3.166961725,-3.482725703,-4.343789662,0.741031949,-2.851448869,-5.466879959,-2.415576023
-4.373341258,-7.999758284,-7.3868023,-11.45844596,-1.999384388,0.564813909,-4.499463366,-4.477011161,-2.124023138,-4.976195818,-6.549223647,-0.514521322,-1.951792064,-2.057708173,-2.818604447,0.649065929,-2.673084429,-5.06221977,-2.297783884
-5.319297577,-8.261230517,-8.09590248,-12.96883414,-2.363072872,1.52168873,-2.726497863,-4.37665537,-2.024495543,-6.2639391,-5.04621773,0.275670814,-0.516296391,-0.572007532,-0.92013847,0.252242238,-2.82048325,-4.94983255,-1.88219741
-6.10124489,-8.387748703,-8.141501751,-13.88321792,-2.81597624,2.113435329,-1.672066927,-5.052847179,-2.193097429,-8.018941102,-3.256277496,-0.421576223,0.525806351,0.528777482,-0.049149122,-0.548116096,-2.945277865,-5.536268215,-1.578576196
-6.467719155,-8.55610584,-7.633317733,-13.85440723,-3.172178307,2.056688555,-1.73792302,-6.24184496,-2.667395554,-9.320744305,-2.06390315,-2.417339369,0.869011145,1.122754682,-0.675630366,-1.427706993,-2.667587516,-6.6785522,-1.653089402
-6.241663931,-8.71904042,-6.719320151,-12.81887771,-3.159351545,1.61429622,-2.45279511,-6.916729533,-2.746983273,-9.156137482,-1.672930009,-4.807046989,0.673055731,1.379372459,-2.14881756,-1.890443403,-1.91983878,-7.801832384,-1.997707897
-5.503193029,-8.703542773,-5.557952029,-10.96331553,-2.54684714,1.408318758,-2.705704429,-5.831302814,-1.39995603,-6.947344417,-1.532928901,-6.514348521,0.444823543,1.586428937,-3.282908104,-1.659105138,-1.036914383,-8.329262463,-2.26247133
-4.600615285,-8.407922457,-4.361743377,-8.632884248,-1.286521973,1.926441268,-1.489757533,-2.41201319,1.874586169,-2.951029954,-0.815133596,-6.7976444,0.696895493,1.947692774,-3.198530823,-0.859882201,-0.501613929,-8.055747844,-2.208946189
-3.93642205,-7.892989872,-3.389987219,-6.238588406,0.41263482,3.104161519,1.3330232,2.627457709,6.435095975,1.74828359,0.932004694,-5.478961209,1.600264111,2.457451544,-1.814763203,0.133351534,-0.551859529,-7.188938262,-1.938709522
-3.678113462,-7.295729821,-2.820090688,-4.161022215,2.130564499,4.323257807,4.814322726,7.470230013,10.70482722,5.715507524,3.436697383,-2.896837009,2.86810264,2.905364396,0.258418792,1.011776934,-0.984500688,-6.091658751,-1.77005996
-3.630572444,-6.676659961,-2.579210931,-2.638922015,3.396212379,4.843830109,7.452346264,10.16056561,13.12070917,7.872281671,5.897957529,0.271781192,3.947976592,2.995266731,2.220628635,1.69642465,-1.330273505,-4.99751841,-1.871474197
-3.388103362,-5.965427306,-2.310877439,-1.68332499,3.889615592,4.340184869,8.125399241,9.745808926,13.13322969,8.013824611,7.53419503,3.205900275,4.377259968,2.507826261,3.556090694,2.228357845,-1.256412522,-3.937760464,-2.004437784
-2.655041861,-5.055564692,-1.573596403,-1.095916661,3.582928173,3.124654027,6.770563617,6.824707526,11.50577418,6.816926935,8.059317887,5.142112442,4.045836662,1.421679055,4.191152882,2.549215652,-0.85208072,-2.87807134,-1.650489506
-1.481624765,-3.945374721,-0.169472508,-0.620790494,2.742416416,1.891850501,4.342272172,3.131066163,9.708917305,5.353994744,7.764883994,5.608086457,3.198090015,-0.064959413,4.333027522,2.449150787,-0.547056563,-1.865625726,-0.454743597
-0.231163599,-2.782440491,1.643837565,-0.144248314,1.785555798,1.196853,2.125641213,0.457534093,8.903034454,4.455101882,7.219318268,4.632833018,2.215106832,-1.616337403,4.197339364,1.777746289,-0.729738086,-1.013210213,1.387801834
0.684138095,-1.774031001,3.250547828,0.213126761,1.067932259,1.082968941,0.93956793,-0.336261897,9.277725545,4.335967479,6.866564019,2.788951277,1.372595334,-2.897610239,3.841291481,0.716971585,-1.394676347,-0.350696171,3.16469365
1.07842162,-1.058672558,4.04725511,0.203778455,0.715884505,1.136546826,0.78860229,0.394025171,10.16793259,4.681175449,6.814239834,0.957552677,0.749396768,-3.699981533,3.186583942,-0.194899097,-2.129959596,0.265933773,4.120259528
1.065862032,-0.658760482,3.828621171,-0.315189676,0.594826204,0.889676095,1.120237802,1.573684903,10.72210853,5.025355982,6.887439118,-0.115119701,0.301962761,-3.998166721,2.172919947,-0.392819158,-2.462902285,1.049837688,4.01206227
0.901726434,-0.533255383,2.904360061,-1.226147853,0.422725963,0.216477441,1.370432301,2.210495771,10.51083586,5.086899407,6.808815593,-0.216723576,-0.023646884,-3.925826533,0.913593458,0.27245312,-2.269338213,2.057249251,3.295800201
0.750755582,-0.639238394,1.863720679,-2.225251179,-0.047382096,-0.600873245,1.322609759,1.906796726,9.629194766,4.817087373,6.331233444,0.243404823,-0.270190738,-3.694215614,-0.264659541,1.371515617,-1.890671803,3.067274094,2.77247155
0.581730146,-0.915151601,1.171274285,-3.082360362,-0.887541304,-1.162319334,1.056477322,0.824871458,8.360650595,4.218275297,5.281867499,0.525253469,-0.535713862,-3.498135452,-0.950668786,2.196489083,-1.850496042,3.718904611,2.968028935
0.254978286,-1.213995944,0.897142425,-3.858172243,-1.972340982,-1.318468638,0.660341442,-0.684557665,6.844141778,3.19280818,3.603453676,0.02676924,-1.005428778,-3.447247882,-0.900551208,2.302993334,-2.40710316,3.809839101,3.736537703
-0.303360466,-1.30930372,0.763430299,-4.858925924,-3.066771897,-1.28790566,0.059189348,-2.379229609,5.0947436,1.625503566,1.455115193,-1.390731692,-1.845474782,-3.540597227,-0.262084247,1.839285526,-3.321559589,3.482835228,4.397144156
-1.006747888,-1.046716968,0.432856306,-6.32847778,-3.95046394,-1.428659446,-0.867126891,-4.123623262,3.29749108,-0.363184645,-0.705354199,-3.411059158,-3.004609292,-3.682435307,0.417955961,1.375260986,-4.03836028,3.10500284,4.283787053
-1.667763215,-0.545758681,-0.212787358,-8.129376218,-4.497603104,-1.878892883,-2.035353321,-5.714733918,1.965163401,-2.275095492,-2.219076295,-5.527569492,-4.105239593,-3.726318682,0.49396374,1.380580873,-4.124614156,2.93019218,3.262684141
-2.14105464,-0.239948337,-1.019312571,-9.717624108,-4.682698066,-2.395528535,-3.092800243,-6.82792542,1.659472505,-3.435531143,-2.558963447,-7.308802016,-4.579734703,-3.531352062,-0.306176182,1.817303719,-3.597233513,2.860067827,1.817779226
-2.416355587,-0.629550488,-1.740017246,-10.49414146,-4.543115601,-2.542297939,-3.666521635,-7.213711886,2.431578814,-3.468347287,-1.720929947,-8.47139131,-4.01720681,-3.014997088,-1.574318338,2.211521203,-2.87041884,2.554586971,0.667160577
-2.592923838,-1.873914708,-2.263189024,-10.28578739,-4.148693895,-2.06964247,-3.722831485,-6.965906716,3.50449892,-2.67931773,-0.357258676,-8.793474289,-2.485710036,-2.188552845,-2.395041702,2.128922261,-2.384698469,1.820863655,0.243112073
-2.781432726,-3.548776773,-2.680675564,-9.553741466,-3.596552,-1.15838629,-3.674052288,-6.54579688,3.615157701,-1.973299836,0.537483987,-8.071327108,-0.569327446,-1.164823701,-1.996739636,1.598714901,-2.246521629,0.920227523,0.444949998
-3.029774593,-4.825405128,-3.147199279,-9.105791355,-3.004407544,-0.31317118,-4.066393514,-6.442108906,1.896508827,-2.263379961,0.242299023,-6.264225343,0.946074413,-0.133672583,-0.462162335,1.068925599,-2.184548452,0.463926077,0.817561438
-3.318351227,-5.003807162,-3.669299244,-9.483205759,-2.469089128,0.011484921,-5.073491581,-6.707104853,-1.339945334,-3.758873559,-1.194772656,-3.736309574,1.536383579,0.69050694,1.088241959,0.91605818,-1.842753225,0.924798863,0.957424442
-3.587671927,-4.011846567,-4.022623186,-10.48604621,-2.000572264,-0.253359828,-6.242956111,-6.792859209,-4.588246937,-5.684846691,-2.965964525,-1.3220112,1.227607759,1.136601209,1.124698756,0.974555766,-1.137171442,2.167639884,0.798039263
-3.742356464,-2.463289002,-3.883641234,-11.23585704,-1.492875631,-0.761587437,-6.768741287,-5.914601126,-6.023955506,-6.715229056,-4.042692378,-0.017413941,0.514131918,1.139412444,-1.188655272,0.570983896,-0.358916276,3.437095243,0.578152044
-3.638505655,-1.207771975,-3.080601862,-10.77689115,-0.790942339,-1.036482917,-6.115984247,-3.724956665,-4.698200318,-5.87010443,-3.859432871,-0.407777731,-0.00850417,0.772240795,-5.219292753,-0.906751315,0.057340036,3.866700504,0.584613867
-3.124722372,-0.737917604,-1.772255657,-8.789974376,0.160279822,-0.822875637,-4.492467181,-0.76832423,-1.187357243,-3.241602923,-2.634885111,-2.223916885,-0.00834185,0.227886786,-9.100097212,-3.405287954,-0.120271762,3.095812122,0.924616225
-2.178733112,-0.962346405,-0.42359414,-5.880726483,1.188608578,-0.224178715,-2.749266577,1.708079515,2.791532907,0.007989928,-1.100373407,-4.404779351,0.47617807,-0.256938129,-10.93542331,-6.167868744,-0.774376226,1.440404693,1.497723313
-1.06612858,-1.550907471,0.396008176,-3.209591502,1.914489063,0.459201563,-1.750859631,2.531767306,5.533987649,2.417883235,0.131439395,-5.694900865,1.214091707,-0.509705726,-10.14868673,-8.390922958,-1.614581836,-0.572245411,2.120525234
-0.359419103,-2.542544951,0.247110801,-1.726518016,1.953372873,1.021098382,-1.702878807,1.437516316,6.448070295,3.236747241,1.049233262,-5.384092594,2.046053735,-0.510008137,-7.925016978,-10.04206636,-2.497025445,-2.909697111,2.628969149
-0.711667303,-4.625021261,-1.054267944,-1.574610783,1.18789491,1.512090751,-1.980136265,-0.667624962,6.339493066,2.935055259,2.202802416,-3.656560185,2.999001205,-0.399186606,-6.320464312,-12.06000036,-3.571298161,-6.298374899,2.858726221
-2.47089674,-8.727503759,-3.455900332,-2.099519832,-0.090997219,2.151374229,-1.603634894,-2.239784303,6.727661917,2.831435906,4.193293249,-1.300863156,4.179722695,-0.387130719,-6.642261409,-15.60925152,-5.094518835,-11.67447179,2.583108303
-5.395324241,-15.15524166,-6.761287304,-2.443229164,-1.313126143,3.092798006,0.002174236,-2.089004096,8.716555678,4.08150937,7.1153079,0.9682559,5.581852783,-0.595240853,-8.340729386,-20.88632441,-7.063783398,-19.15172479,1.566959436
-8.711916346,-22.95199918,-10.69517808,-2.264257317,-1.979224878,4.263432697,2.55452632,-0.151034251,12.20134919,6.744984227,10.38706446,3.015181877,7.004823401,-0.929960141,-9.334211908,-26.46842627,-9.00592235,-27.34367407,-0.22513509
-11.52613396,-30.08635779,-14.90171841,-2.039864084,-2.002336076,5.404708091,5.086331226,2.473689457,15.89170986,9.599859456,13.07369768,5.200541151,8.159558355,-1.083519555,-7.60100062,-29.88231085,-10.15311039,-33.72097213,-2.433336813
-13.31084921,-34.45061434,-18.91334118,-2.724800877,-1.785375087,6.252659805,6.576895617,4.212454908,18.05494871,10.84851161,14.42152178,7.78985184,8.850508452,-0.691015522,-2.851051851,-29.13420243,-9.911486425,-35.92519733,-4.355726007
-14.11623007,-35.01064928,-22.16106229,-5.016230799,-1.949637836,6.67884363,6.542263008,3.959948979,17.45820738,9.241598296,14.19491301,10.37432776,9.053526217,0.430744622,3.032661874,-24.12267122,-8.27224023,-33.18269705,-5.310674837
-14.34645874,-32.29039171,-24.06656419,-8.753410103,-2.881645214,6.676061009,5.183087771,1.664522442,13.96490445,4.871137938,12.62080513,11.84064124,8.817697505,2.10811171,7.177234342,-16.85093041,-5.844012774,-26.80614139,-5.080229635
-14.29505374,-27.86217495,-24.19795963,-12.87391309,-4.412969066,6.241112175,3.083773909,-1.749700449,8.539450789,-0.868964329,10.08776934,10.99288334,8.100946385,3.825561086,7.665660135,-10.21943771,-3.480044761,-19.39964392,-4.073292175
-13.83345374,-23.26219602,-22.42845131,-15.95428246,-5.869898693,5.311656237,0.795526606,-4.986648386,2.767225104,-6.085859791,6.915938985,7.395152835,6.728589022,4.948558969,4.785623475,-6.251423772,-1.786049793,-13.32376814,-3.028447329
-12.525777,-19.15626231,-19.02821338,-16.97404373,-6.47411095,3.852771283,-1.354552587,-7.080287559,-1.812964355,-9.399828488,3.383605136,1.803734115,4.558768827,5.039853518,0.667674911,-5.028308094,-0.867164027,-9.495295632,-2.451541739
-10.08375813,-15.32383409,-14.63752843,-15.81981329,-5.826644542,2.021059083,-3.166600472,-7.791307196,-4.271015532,-10.53082838,-0.088415213,-4.143540658,1.737619566,4.087674876,-2.342876973,-5.045172389,-0.455626125,-7.293399562,-2.234728543
-6.77597791,-11.33629185,-10.10451723,-13.24584581,-4.14926628,0.226283074,-4.403304024,-7.549869509,-4.551161008,-10.16510498,-2.860202304,-8.760920035,-1.18772694,2.511265318,-3.276445995,-4.59603478,-0.250382918,-5.478392002,-1.790091204
-3.423381333,-7.260854773,-6.223042335,-10.3660945,-2.131841676,-1.023248062,-4.801888722,-7.071693896,-3.364709365,-9.298490057,-4.26838959,-11.09022277,-3.445946498,0.941684577,-2.890825464,-3.049921078,-0.159187968,-3.30093883,-0.615873276
-0.945090033,-3.767535679,-3.466778951,-8.026902604,-0.50994277,-1.414169571,-4.278938519,-6.909700985,-1.755393257,-8.554114224,-3.9907562,-11.14018147,-4.432096002,-0.092681743,-2.639720413,-1.065626518,-0.26634539,-0.949003296,1.164743301
0.207407114,-1.585734488,-1.849492396,-6.441186896,0.329558913,-1.039207043,-3.107352878,-7.17237854,-0.525871976,-7.910471737,-2.29277589,-9.562106879,-4.05544059,-0.399618169,-3.238624578,0.276615821,-0.617375393,0.88291844,2.761178245
0.288207963,-0.841058894,-1.004401657,-5.265906483,0.465237923,-0.34684374,-1.840056144,-7.51729767,0.176009292,-6.940932789,0.061484055,-7.139478606,-2.800722992,-0.160246317,-4.075739234,0.567409446,-1.06919352,1.781495007,3.246057675
-0.011891162,-0.89690866,-0.459154012,-4.019960512,0.249505771,0.146952073,-0.989389946,-7.395255934,0.848327368,-5.315105632,2.191202484,-4.504676813,-1.456221706,0.224905985,-3.928845728,0.414941322,-1.368127719,2.01432856,2.256969554
-0.113517948,-0.862255498,0.050779713,-2.54340392,-0.00564233,0.170045404,-0.71564252,-6.416238699,2.174057862,-3.17642041,3.508513877,-2.178916753,-0.687823789,0.375095918,-2.295579941,0.788981165,-1.382027382,2.226303223,0.306088055
0.064712643,-0.326430334,0.435323082,-1.194829984,-0.223517316,-0.199735391,-0.791093036,-4.64860248,4.395133167,-1.145501457,3.894459353,-0.686110057,-0.723807221,0.121522382,-0.10949577,2.000285992,-1.25382903,2.77890448,-1.562189132
0.167184604,0.324249971,0.37533979,-0.661039912,-0.52374947,-0.685699439,-0.865839242,-2.674681337,6.972070283,0.021861775,3.588004958,-0.4470878,-1.313405869,-0.433170283,0.851305426,3.261431202,-1.311659618,3.380486816,-2.501206181
-0.18863571,0.286296361,-0.369830178,-1.50249269,-1.029319121,-1.062243073,-0.790563671,-1.335757492,8.819729168,-0.130118915,2.95127669,-1.450556594,-1.93288554,-0.996021699,-0.587642692,3.249833078,-1.800763339,3.353037404,-2.405811184
-1.034981315,-0.918767185,-1.71130663,-3.731794534,-1.705494912,-1.284006597,-0.705836243,-1.28053992,8.998730114,-1.515090462,2.31170951,-3.028968607,-2.082848852,-1.250181777,-3.917856469,1.208562416,-2.678348456,2.276409484,-1.859687996
-2.036366603,-2.990919176,-3.245100637,-6.712580956,-2.363567466,-1.409574672,-0.834420383,-2.580877762,7.378154019,-3.591190506,1.934038003,-4.092788962,-1.520611373,-1.023467037,-7.201093282,-2.354775069,-3.66497809,0.403282078,-1.571935347
-2.823562018,-5.081782941,-4.536676267,-9.469044632,-2.810611202,-1.435900597,-1.200762285,-4.674050062,4.768029505,-5.695631944,2.01095126,-3.819951216,-0.356183528,-0.381655316,-8.525721265,-5.974368426,-4.512109243,-1.542727081,-1.796900549
-3.35437662,-6.501230614,-5.453829391,-11.22743277,-3.007024276,-1.238647527,-1.575745346,-6.69817046,2.39423313,-7.404711391,2.555461347,-2.34719515,0.984928778,0.399290787,-7.521494078,-8.293056292,-5.237568072,-2.997730786,-2.212399953
-3.957237356,-7.275038564,-6.2671998,-11.84492197,-3.097694668,-0.698455687,-1.726575856,-8.018093389,1.081282015,-8.705722152,3.238092099,-0.880917793,1.909534839,0.975746212,-5.700349157,-9.015180859,-6.095875194,-4.028543785,-2.31509631
-5.004710296,-8.059997654,-7.411909913,-11.84058568,-3.294409239,0.105767338,-1.739972677,-8.589574769,0.735510808,-9.902725343,3.366693054,-1.009303886,1.89321327,1.126622285,-5.314571088,-8.986228504,-7.286918955,-5.198611401,-1.945854993
-6.50572854,-9.48763519,-9.082459564,-12.00282723,-3.70712857,0.845655734,-2.079227059,-8.907869949,0.49757146,-11.34408791,2.16984836,-3.608409485,0.747897321,0.88406528,-7.608444814,-9.382514286,-8.658271388,-6.94200683,-1.46592153
-7.992536332,-11.51032496,-10.98693059,-12.83605543,-4.25447025,1.129577935,-3.251820927,-9.578450109,-0.569002426,-13.15387489,-0.696484728,-8.107517958,-1.203647038,0.513888902,-11.82440421,-10.72022834,-9.69192714,-9.023685949,-1.43441201
-8.829523612,-13.32592311,-12.47611305,-14.22098542,-4.712600881,0.798767889,-5.325230198,-10.82041016,-2.774753702,-15.12392427,-4.75060659,-12.68609359,-3.190672883,0.338053515,-15.72603261,-12.49667192,-9.837461579,-10.60656336,-2.088474844
-8.700335631,-13.95949992,-12.96562918,-15.51091826,-4.853401821,0.079311274,-7.708612759,-12.2599365,-5.588184213,-16.80836092,-8.746046693,-15.32843133,-4.339880535,0.500490944,-17.21326552,-13.7009084,-8.947910171,-10.90616732,-3.100365659
-7.861217389,-13.01758764,-12.32630966,-15.97703881,-4.565088522,-0.56583039,-9.437233105,-13.15530013,-8.016527819,-17.73893339,-11.26273589,-15.04160688,-4.158304273,0.835644103,-15.78285681,-13.69501534,-7.45854271,-9.871640663,-3.833798789
-6.934655851,-10.98774363,-10.93732806,-15.27638917,-3.878896548,-0.788631548,-9.790199088,-12.88244575,-9.255833116,-17.625541,-11.50646134,-12.41837916,-2.86288438,0.948997916,-12.7610449,-12.69894113,-6.135801055,-8.280220477,-3.875288493
-6.404143382,-8.849777926,-9.370279461,-13.62245871,-2.908025718,-0.627212682,-8.78220692,-11.33758964,-9.135111692,-16.44526417,-9.795256039,-9.190872465,-1.306603653,0.478029988,-10.22289853,-11.5095405,-5.569137774,-7.132205258,-3.372889696
-6.228934458,-7.345964957,-7.974869596,-11.57673482,-1.768153222,-0.461189535,-7.149076254,-8.998831492,-8.098883109,-14.41313418,-7.382177207,-7.119002842,-0.492442704,-0.635142104,-9.500505676,-10.76696469,-5.795245189,-6.851354854,-2.887467874
-5.904300412,-6.523787058,-6.711014401,-9.658436788,-0.546295962,-0.674204235,-5.836768204,-6.646722473,-6.840131086,-11.89637888,-5.700918608,-6.975331228,-0.955731149,-2.054596454,-10.40561206,-10.44537868,-6.345321985,-6.982324119,-2.892621989
-4.922991883,-5.898779833,-5.35100899,-8.074233785,0.671226466,-1.299243056,-5.383746022,-4.965922315,-5.905684728,-9.334636123,-5.511655475,-8.249130171,-2.415963746,-3.222908584,-11.63957251,-9.995158368,-6.666843753,-6.655155557,-3.365057955
-3.256883933,-5.035430781,-3.846691423,-6.734410473,1.757481416,-1.949763577,-5.64866204,-4.280827027,-5.517174831,-7.176261724,-6.488285413,-9.649709085,-3.94171997,-3.689456892,-11.91886182,-8.955231917,-6.570298156,-5.416944288,-3.82011726
-1.456142046,-3.997156471,-2.506651122,-5.476450935,2.54638639,-2.109783056,-6.042779666,-4.530329658,-5.61183941,-5.795712209,-7.486661066,-9.970548824,-4.533584615,-3.375346609,-10.87136641,-7.443327438,-6.338083632,-3.69956505,-3.750384422
-0.274520495,-3.266290549,-1.794828617,-4.269508678,2.893032586,-1.55711006,-6.034499436,-5.408380112,-5.948893338,-5.370560502,-7.290045561,-8.735036138,-3.748632064,-2.599900936,-9.076418169,-6.074134955,-6.418105529,-2.498550658,-3.073420271
-0.115000631,-3.232106179,-1.90677035,-3.232632442,2.754875501,-0.576761696,-5.520802882,-6.529004169,-6.170575615,-5.762620088,-5.349334376,-6.307754568,-1.967026059,-1.864053856,-7.387631751,-5.399493354,-6.970911614,-2.524322033,-2.196054963
-0.733727497,-3.738720653,-2.502328073,-2.490914811,2.231986537,0.213768134,-4.820593804,-7.535490056,-5.858156617,-6.501894693,-2.086115896,-3.554137824,-0.147263612,-1.551614458,-6.22426005,-5.405140892,-7.65910044,-3.557771085,-1.64816093
-1.43032024,-4.127559987,-2.868437029,-2.036035038,1.528897094,0.29575528,-4.368546824,-8.166690607,-4.687585735,-6.9471151,1.368230588,-1.359375258,0.751038525,-1.745541597,-5.424667559,-5.538001276,-7.863769551,-4.582420177,-1.616472209
-1.56770332,-3.760027979,-2.427748307,-1.730280706,0.854040875,-0.393749785,-4.393055743,-8.316869361,-2.678489974,-6.586519657,3.791488617,-0.272415432,0.310060976,-2.245791877,-4.676267379,-5.241025183,-7.157025688,-4.60484185,-1.786548715
-1.017928282,-2.570510134,-1.198977771,-1.438776817,0.316694528,-1.439354759,-4.804104637,-8.072672112,-0.355783378,-5.321270186,4.481980137,-0.356650212,-1.140419219,-2.71965957,-4.015819143,-4.49871378,-5.64789395,-3.480502157,-1.619896547
-0.210195728,-1.164852859,0.174788291,-1.14954875,-0.114367234,-2.248124905,-5.296241394,-7.665862432,1.391222341,-3.54408187,3.560570942,-1.204372679,-2.720782924,-2.845714801,-3.8799516,-3.880015251,-3.923974428,-2.047865154,-0.812876786
0.219219076,-0.37214845,0.876764062,-0.963095042,-0.56388571,-2.421520816,-5.511669459,-7.320026763,1.774376558,-1.933363295,1.858557826,-2.078628898,-3.442009233,-2.374571008,-4.652923354,-4.023433514,-2.641283555,-1.455152518,0.458055909
-0.120811113,-0.62758302,0.503905982,-0.97205723,-1.143173752,-1.927166848,-5.13689821,-7.07305798,0.634131052,-1.068809146,0.486138754,-2.190524477,-2.645304621,-1.147294767,-6.16032771,-5.027424783,-2.094500981,-2.244300236,1.690797316
-1.158069988,-1.698777163,-0.666020289,-1.163236898,-1.849360204,-0.99618658,-3.948793677,-6.719411639,-1.357538296,-1.106349536,0.296663604,-1.07856249,-0.262912351,0.840159259,-7.634781901,-6.314631194,-2.101404599,-3.954386844,2.440818298
-2.487496261,-2.957267665,-1.925046843,-1.444488988,-2.533972471,0.101195635,-1.901597115,-5.951690831,-3.023729154,-1.722733941,1.487193123,1.070777119,3.158774369,3.314576535,-8.262440212,-7.125613412,-2.265325825,-5.557513031,2.58425308
-3.685243534,-3.923460238,-2.680682255,-1.757883073,-2.961543616,1.186926878,0.735735548,-4.62084937,-3.368135465,-2.359872221,3.517260581,3.396530105,6.648548694,5.659211269,-7.877860326,-7.226531778,-2.368221521,-6.333880289,2.261726353
-4.532244828,-4.595960274,-2.84468585,-2.134803272,-2.922841883,2.134709981,3.327267875,-2.912834485,-2.168818547,-2.590770213,5.397006864,4.75264121,9.150617437,7.05345669,-7.191907393,-7.195116086,-2.552458526,-6.434246067,1.623211577
-5.000805191,-5.296755921,-2.763368252,-2.596840641,-2.333198797,2.768012256,5.061551325,-1.277574284,-0.075547865,-2.345757765,6.221650781,4.360369479,9.923605186,6.842368738,-7.289535793,-7.988135582,-3.143425334,-6.665374583,0.67365842
-5.085826343,-6.212767366,-2.785340304,-2.974708813,-1.257449882,2.864305661,5.37190091,-0.133211588,1.846497251,-1.845223198,5.68317753,2.335523991,8.859915475,4.951605955,-8.739882666,-10.11008722,-4.278316687,-7.708992593,-0.6093373
-4.685975374,-7.085160196,-2.866894646,-2.841681137,0.146658795,2.309554321,4.332440821,0.442421675,2.798733673,-1.306976921,4.268404977,-0.280358736,6.566443748,2.052086651,-11.01657086,-13.06719651,-5.674301334,-9.462946938,-2.019942555
-3.664640069,-7.352195214,-2.569730553,-1.698002954,1.718798616,1.267213687,2.707377599,0.792098881,2.69478013,-0.668204727,3.004574039,-2.055628896,4.117672282,-0.707813617,-12.7257274,-15.58339108,-6.753138127,-11.07153842,-3.042010522
-2.031941951,-6.628169385,-1.455855896,0.673493147,3.350821138,0.171490466,1.541429231,1.456072999,2.108257736,0.446112287,2.876373755,-1.960614406,2.558093888,-2.295848388,-12.52824409,-16.44276735,-7.038764906,-11.60933569,-3.113328798
-0.065291727,-5.085941336,0.464879408,3.945118388,4.966972221,-0.50937516,1.53081496,2.801712401,1.822182218,2.460954336,4.251143026,0.073274714,2.40021048,-2.353690366,-10.09983683,-15.31664538,-6.510829388,-10.82618976,-2.069198919
1.764632513,-3.387702606,2.62806565,7.311646742,6.452156941,-0.582974803,2.615858777,4.77220112,2.323189583,5.473271813,6.659025328,3.158501229,3.40448128,-1.346076112,-6.424172255,-12.95044082,-5.624154466,-9.32433327,-0.377425538
3.02431918,-2.20738943,4.252874894,9.881101354,7.59779609,-0.266955523,4.096613795,6.923118574,3.555294903,9.035783171,9.058179309,5.976786974,4.77869451,-0.194867718,-3.198383071,-10.60106932,-4.969530798,-8.037546761,1.096164723
3.529806352,-1.74976785,4.854248268,11.12349417,8.129508857,-0.021592263,5.181373764,8.696156635,5.016203352,12.27899934,10.41001235,7.467014233,5.676832336,0.349191568,-1.773159019,-9.193488579,-4.838379127,-7.475242949,1.662791899
3.384594942,-1.672448681,4.519474746,11.06278986,7.823761047,-0.197588499,5.545796503,9.718113935,6.049903956,14.31783142,10.20297054,7.273463928,5.686479323,0.160956631,-2.366445734,-8.836307375,-5.030630879,-7.372798444,1.283476718
2.837745925,-1.458773505,3.749113679,10.10863475,6.651825507,-0.772507854,5.481831344,9.93061322,6.121043214,14.69350642,8.619342235,5.766903842,5.007577124,-0.279919557,-4.05968205,-8.990794505,-5.051641249,-7.0166217,0.550293618
2.103484496,-0.893688342,3.031151373,8.714838203,4.859159874,-1.381653772,5.551395496,9.514884523,4.947975244,13.57621442,6.28729104,3.730120032,4.235956095,-0.334744769,-5.507234823,-9.046287641,-4.536912519,-5.927426788,0.183476346
1.29755522,-0.214736646,2.524672188,7.165323477,2.919150785,-1.611122685,6.052125521,8.727296219,2.500871245,11.61202942,3.818937639,1.943862347,3.922029003,0.276094465,-5.808512042,-8.776578207,-3.566799318,-4.295854298,0.457340901
0.520255112,0.185154766,2.103078713,5.627553319,1.370842685,-1.312373792,6.730459804,7.782708749,-1.070830983,9.52568549,1.433594902,0.869723862,4.200488347,1.263827497,-4.948855764,-8.338642011,-2.623083422,-2.805917709,1.02845906
-0.03075717,0.213407587,1.669526091,4.333393782,0.613702886,-0.692604368,6.947921666,6.823272153,-5.53802351,7.733836712,-1.136264694,0.50567141,4.708380639,1.998618434,-3.597225765,-7.920470415,-2.219707255,-2.024643332,1.295643652
-0.068034244,0.253594939,1.412396092,3.617682124,0.75175223,-0.131258197,6.127831863,5.908434111,-10.70402701,6.193580881,-4.457963091,0.412081403,4.803570528,1.972628022,-2.528312568,-7.439613389,-2.490020898,-1.902510835,0.967734175
0.620072326,0.874056909,1.731714162,3.697654615,1.551464171,0.102713219,4.104213406,4.96353954,-16.50108554,4.541917304,-9.082747795,-0.104488885,3.916922766,1.145068446,-2.147645935,-6.594688482,-3.042810884,-1.812533052,0.344789993
1.967256149,2.310130513,2.877972633,4.373199547,2.527611884,-0.004129187,1.120228434,3.719496938,-23.01297857,2.396081898,-15.27812286,-1.677986163,1.828137036,-0.062932362,-2.41925695,-5.201728634,-3.194744365,-1.077594479,0.076457441
3.573704251,4.182081789,4.623588372,4.976881915,3.125964171,-0.296968404,-2.45346553,1.751777109,-30.38305195,-0.395700234,-22.91298327,-4.544539792,-1.258233482,-1.078748667,-3.120706855,-3.463662569,-2.410690367,0.477716507,0.617692841
4.882074784,5.722520433,6.284093442,4.731196808,2.941932863,-0.656012636,-6.383808594,-1.31676681,-38.6480903,-3.698264558,-31.51033017,-8.369509882,-4.832762503,-1.541401696,-4.105866449,-1.883938459,-0.642770492,2.412545425,1.85574498
5.486766422,6.348615569,7.119582066,3.303054324,1.897768783,-1.109749529,-10.58771278,-5.529959994,-47.61563313,-7.222754592,-40.42614896,-12.40361308,-8.311284668,-1.47161367,-5.325238726,-0.875824643,1.652691996,4.060069064,3.217264932
5.361474156,6.108457573,6.823381737,1.112230115,0.300430582,-1.756621795,-14.92656423,-10.4271057,-56.88738298,-10.71768661,-49.08490132,-15.93867728,-11.27359834,-1.184567063,-6.639030361,-0.414774072,3.804957835,5.062364622,4.137815959
4.840250015,5.627090975,5.722297717,-0.907167591,-1.267850704,-2.587987492,-19.03768984,-15.15022257,-66.01456179,-14.06817248,-57.17854726,-18.78551049,-13.62674685,-1.068753793,-7.682785751,-0.056580638,5.306927201,5.595449198,4.472000236
4.369084852,5.596122779,4.540093795,-1.958598647,-2.205176948,-3.406040506,-22.4223877,-18.81073974,-74.65012215,-17.24409103,-64.72574306,-21.40830984,-15.62931144,-1.403528673,-8.001292837,0.679865517,6.032208594,6.128728766,4.504630811
4.214787242,6.232057835,3.918149209,-1.949070773,-2.184160859,-3.942818019,-24.75600624,-20.90336407,-82.5589782,-20.16281187,-71.93034846,-24.5502147,-17.74406965,-2.293620869,-7.3952208,1.894934841,6.184338826,6.971583522,4.601415648
4.341258327,7.147405936,4.059011953,-1.505132414,-1.327888182,-4.090435496,-26.15108403,-21.50913741,-89.48283057,-22.59771605,-78.88885058,-28.56636055,-20.3520512,-3.677136669,-6.178863667,3.220868265,6.065000289,8.018677448,4.85685118
4.524324911,7.724656789,4.729352214,-1.410893096,-0.150823037,-4.030389327,-27.11088631,-21.17288235,-95.01437646,-24.2241999,-85.3191089,-32.95139976,-23.45173247,-5.331544624,-5.065957356,4.140385308,5.851682819,8.895854663,5.067700375
4.589298389,7.664452796,5.556076119,-1.922510867,0.723938467,-4.120279061,-28.16175565,-20.55998406,-98.65910414,-24.78296569,-90.5157285,-36.46144206,-26.52145581,-6.870657615,-4.694023924,4.432671633,5.531497695,9.340401995,5.0232827
4.569999258,7.250546119,6.335730215,-2.528022499,0.915053541,-4.60596853,-29.43280307,-20.1245672,-100.1049044,-24.24294497,-93.62016145,-37.81105323,-28.67323223,-7.801318911,-5.125862806,4.363503887,5.001769485,9.457189275,4.787920918
4.667503308,7.131508746,7.118444136,-2.356667105,0.486380298,-5.393578786,-30.51720843,-19.97200494,-99.50702876,-22.83961673,-94.08169738,-36.482986,-29.06889973,-7.694324821,-5.737950702,4.468587493,4.229790315,9.631597514,4.662700636
5.059528972,7.826722104,8.057823306,-0.899270455,-0.128060689,-6.087054481,-30.74155712,-19.93700354,-97.52801996,-20.95669595,-92.02894315,-33.0774693,-27.39376242,-6.418773069,-5.630986791,5.134345564,3.341966508,10.20229696,4.845273234
5.732538173,9.370017918,9.2162188,1.557153252,-0.428887929,-6.287161773,-29.65916045,-19.76596753,-95.03799837,-18.94055225,-88.30100305,-28.95467523,-24.1138556,-4.290845032,-4.283297557,6.34069619,2.583899658,11.20049764,5.137000283
6.481018833,11.34903034,10.5115305,4.129511233,-0.182572614,-5.927856977,-27.41894875,-19.27885882,-92.65965968,-16.9903658,-84.09966622,-25.44103788,-20.34526311,-2.001555009,-1.953905232,7.761552617,2.191695011,12.37354078,5.042311826
7.070655849,13.243069,11.81712848,5.983441803,0.44000529,-5.380485937,-24.76088848,-18.46056959,-90.49397833,-15.20440023,-80.46929261,-23.16995371,-17.38214676,-0.322517688,0.480479886,9.086566165,2.26964738,13.43274002,4.241806645
7.421605536,14.7309609,13.06673712,6.870309791,0.998779334,-5.227301865,-22.6545789,-17.49422411,-88.23726824,-13.72746953,-77.90860558,-21.97802305,-16.1241922,0.255851238,2.131202006,10.24067029,2.752669182,14.26778811,3.026133053
7.652959887,15.72469663,14.22860099,7.127479698,1.083113533,-5.858268083,-21.81869986,-16.74021795,-85.5851822,-12.84567076,-76.30229879,-21.31708684,-16.69196494,-0.253449193,2.676285713,11.30324185,3.467206892,14.93135847,2.23938268
7.950153136,16.18026355,15.17662917,7.201918804,0.559113589,-7.179912798,-22.39204351,-16.62672593,-82.57875205,-12.90225407,-75.13323257,-20.75982279,-18.40297337,-1.368608374,2.474691413,12.23957043,4.239955731,15.44328269,2.678392928
8.369389421,15.95166696,15.62559998,7.169796208,-0.393288993,-8.641159752,-23.89455351,-17.43677957,-79.59692136,-14.05631536,-73.78056114,-20.18189724,-20.09114308,-2.389257574,2.164676101,12.75314381,4.977523097,15.64660118,4.399371958
8.747594136,14.88484738,15.2586565,6.695034819,-1.447114711,-9.551426624,-25.45128688,-19.07615494,-77.00860113,-16.06241614,-71.73124316,-19.56277239,-20.60534278,-2.71299865,2.110493716,12.45475544,5.662867142,15.28856776,6.534152525
8.797477902,13.06966993,13.98115255,5.436519027,-2.349164292,-9.469637348,-26.16012478,-20.99624914,-74.80228235,-18.27841422,-68.67596764,-18.71985401,-19.27896462,-2.072053714,2.15869436,11.2226244,6.270535861,14.25891835,7.839345095
8.311451087,10.9605754,12.07259226,3.483606238,-3.0295614,-8.417333803,-25.46910228,-22.40375559,-72.5412745,-19.96274054,-64.5693104,-17.33495772,-16.20356102,-0.621967286,1.869118947,9.403079582,6.661759207,12.7369096,7.586357396
7.307969969,9.159471174,10.05361894,1.374769585,-3.545817523,-6.811736962,-23.43469606,-22.69285078,-69.71013895,-20.69491575,-59.70335383,-15.31121452,-12.21415541,1.114833344,0.963266523,7.60536335,6.548007668,11.06657497,6.07852279
6.005220105,7.972632434,8.325576686,-0.34000334,-3.944535454,-5.201838224,-20.73759764,-21.82352031,-66.1629285,-20.62173021,-54.72220479,-13.11606581,-8.576461946,2.42560569,-0.439720824,6.208753999,5.583977228,9.445122133,4.357774106
4.654406807,7.114795552,6.868954953,-1.576512951,-4.175616048,-3.9890842,-18.38587744,-20.34084735,-62.27141421,-20.32049628,-50.44591571,-11.69468027,-6.46388928,2.674586205,-2.000787158,5.002012097,3.571780487,7.720306955,3.331058234
3.380993156,5.87322223,5.281906821,-2.749483861,-4.128556707,-3.280621726,-17.18259677,-18.96180655,-58.6138423,-20.34025014,-47.48093458,-11.87867837,-6.419678077,1.594249531,-3.539800898,3.319439059,0.667807001,5.530776894,3.044847364
2.167501183,3.677148099,3.173571294,-4.283856035,-3.745672423,-2.915070616,-17.22187119,-18.00063321,-55.4439407,-20.7388173,-45.80660149,-13.68918264,-8.061543343,-0.53014314,-5.196712822,0.634518322,-2.55493584,2.718709561,2.726381528
0.980362318,0.646807117,0.611399332,-6.042237406,-3.104235147,-2.607509602,-17.75081218,-17.08041296,-52.39145178,-20.97135258,-44.64805326,-16.11467702,-10.22373892,-2.927048039,-7.168286963,-2.848858833,-5.27828333,-0.335717308,1.566048244
-0.088174559,-2.343285862,-1.763836776,-7.240912476,-2.395581296,-2.126812325,-17.56990764,-15.40530001,-48.67640201,-20.25007774,-42.82135087,-17.63404349,-11.52305337,-4.693500201,-9.261597921,-6.129502786,-6.794538798,-2.79391291,-0.424735398
-0.807127913,-4.19275047,-3.09838981,-7.019070857,-1.822245945,-1.429547247,-15.79243505,-12.43996401,-43.70069019,-18.14377995,-39.41276631,-17.17400662,-11.07608756,-5.279461523,-10.75972886,-8.000631436,-6.859548151,-3.860689472,-2.231718261
-0.950834176,-4.322176815,-2.91578653,-5.21732058,-1.498292605,-0.697344035,-12.48410661,-8.488064605,-37.56092822,-14.98331612,-34.36961337,-14.81082562,-8.959864951,-4.800957591,-10.87033962,-7.892962579,-5.823646148,-3.343438327,-2.529591176
-0.482546222,-3.066486065,-1.480961328,-2.668504563,-1.422441911,-0.251870014,-8.715464862,-4.684804683,-31.07538107,-11.75416877,-28.58097722,-11.67960028,-6.123636833,-3.940323851,-9.474224474,-6.316483765,-4.436951597,-1.815310878,-0.71131243
0.38443594,-1.405574952,0.361256022,-0.673780917,-1.523303121,-0.369204115,-5.930957713,-2.339333142,-25.29603363,-9.520827488,-23.35270029,-9.143081577,-3.787589268,-3.457819476,-7.50267944,-4.524842793,-3.429714804,-0.224025198,2.575233521
1.310801793,-0.24404482,1.763617975,-0.040898544,-1.720787987,-1.081442424,-5.028845269,-2.071651768,-20.87167009,-8.774498928,-19.60845357,-7.835852593,-2.697338521,-3.635133524,-6.459968925,-3.624644209,-3.123474152,0.766039127,5.81928762
2.044448908,0.193951097,2.429589018,-0.482824529,-1.953774363,-2.093673003,-5.78443054,-3.380140477,-17.72140482,-9.160370137,-17.35412006,-7.289978336,-2.705503686,-4.058922869,-7.297493093,-3.796105578,-3.316733944,1.187833907,7.654630605
2.548857178,0.393795623,2.722907005,-0.911388397,-2.17371551,-2.903538186,-7.028866217,-4.977649496,-15.21261578,-9.767219917,-15.75999052,-6.393407982,-2.937523621,-3.929430468,-9.4844567,-4.217569762,-3.505764473,1.626132272,7.692709729
2.946697128,1.018846158,3.271110741,-0.404037084,-2.339876759,-3.08493948,-7.458854279,-5.661705368,-12.65047468,-9.754097586,-13.77557718,-4.296158972,-2.409645822,-2.688982069,-11.11494561,-3.74479731,-3.271861508,2.652369292,6.574790628
3.341669605,2.284828679,4.39939522,0.980499571,-2.438039471,-2.564840929,-6.497783151,-5.081258665,-9.694672459,-8.855794643,-10.82532725,-1.061614471,-0.674692641,-0.505398476,-10.14858399,-1.815464396,-2.558257337,4.314884008,5.299986344
3.688136787,3.760970173,5.847202372,2.263544734,-2.501694728,-1.693531343,-4.603478999,-3.847384274,-6.447274046,-7.425553643,-7.109699315,2.40568995,1.922589088,1.766434542,-5.948891193,1.11076581,-1.654788015,6.094947382,4.453790622
3.830268795,4.74026533,6.9684358,2.461766013,-2.596506307,-1.032290361,-2.839386727,-2.942864526,-3.2505947,-6.041528883,-3.354601064,5.048057857,4.511811553,3.135580606,0.061166734,3.887509932,-0.934640555,7.335188147,3.964428511
3.670475025,4.8371485,7.218016195,1.566130299,-2.762304097,-0.984864495,-2.066327329,-2.915273016,-0.425859222,-5.029830361,-0.253315198,6.397290382,6.265192124,3.13903687,5.209933218,5.498457961,-0.57049438,7.752006153,3.48826514
3.298231451,4.290149575,6.516009462,0.689583256,-2.960229541,-1.527782053,-2.359227641,-3.476624673,1.864313962,-4.2879072,1.974412767,6.819468498,6.87913905,2.13181057,7.316577651,5.713627928,-0.455588312,7.592104011,2.961392339
2.938588581,3.715027714,5.218297489,1.174260023,-3.084865505,-2.237484878,-3.038139301,-3.784607207,3.631192208,-3.515611555,3.629483964,7.134011727,6.686744223,1.00267282,6.069796955,5.111345635,-0.37401584,7.320164235,2.751485047
2.748120918,3.533204424,3.771588662,3.36163623,-3.047112683,-2.598793705,-3.221284421,-3.138465228,5.060626182,-2.613302108,5.232793107,7.955488906,6.389126451,0.547637332,3.013672363,4.515433206,-0.253773827,7.138862991,3.269376312
2.644467252,3.578714225,2.382164392,6.07932604,-2.858215031,-2.368588953,-2.445889206,-1.521711476,6.532341272,-1.874856817,7.152536502,9.266024941,6.620664585,0.970090095,0.204141993,4.340866192,-0.269569741,6.782572833,4.442585325
2.350305822,3.229568463,0.975001373,7.353261793,-2.627020301,-1.72704566,-0.919243196,0.412901449,8.549189195,-1.791949574,9.416188379,10.48595986,7.609279981,1.841768996,-1.347557832,4.361263483,-0.695037863,5.774388677,5.605108404
1.650189777,1.955947207,-0.569222506,5.844142236,-2.454537738,-1.112827693,0.703462992,1.852530642,11.46286935,-2.629989296,11.76248879,10.9078999,9.076905219,2.481967015,-2.191943346,4.025312902,-1.624864197,3.91747502,5.975940781
0.651134213,-0.181985966,-2.16570726,1.878600707,-2.316247569,-0.880572541,1.76673975,2.385240294,15.08151089,-4.142447953,13.80653259,10.12621746,10.37196061,2.411389723,-3.571476565,2.998686027,-2.809863339,1.575230037,5.333238659
-0.202588871,-2.513780015,-3.523481873,-2.756797533,-2.05949535,-1.047887636,1.943079876,2.178433823,18.47480439,-5.682749287,15.17339389,8.181346518,10.74180177,1.546293237,-6.006723678,1.461366383,-3.76537527,-0.528427964,4.267010469
-0.424079438,-4.239983334,-4.394189545,-6.097769956,-1.556191191,-1.316021466,1.280321354,1.697162994,20.28647105,-6.640397439,15.57291415,5.419924127,9.647662093,0.075713411,-8.639553435,-0.059385395,-4.089432808,-1.839266733,3.733221642
0.119555867,-5.016743663,-4.819899433,-7.334415574,-0.899588235,-1.326189661,0.062657764,1.269053279,19.52936989,-6.850669553,14.88732662,2.286122689,7.036310865,-1.757688953,-9.951684251,-1.13172146,-3.74644859,-2.387197794,4.248331203
1.038408275,-5.159971212,-5.112088882,-7.150360359,-0.454444384,-0.934299915,-1.322033286,0.892101016,16.39755154,-6.641260913,13.31019694,-0.757475538,3.470663087,-3.7216784,-9.226279652,-1.73288232,-3.087303034,-2.722472358,5.407973173
1.656617952,-5.305323058,-5.540557218,-6.866304536,-0.656525602,-0.2905044,-2.425284004,0.422909297,12.46836264,-6.477615491,11.44850632,-3.173403276,0.018684118,-5.474480399,-7.392941475,-2.171016021,-2.58042827,-3.408772707,6.166855699
1.509623129,-5.813878446,-5.99879953,-7.170430212,-1.66428062,0.317888352,-2.772630094,-0.078143456,10.00076477,-6.504270734,10.23012756,-4.320088211,-2.128313311,-6.475199912,-6.367269091,-2.707724976,-2.457474649,-4.485157935,5.67712219
0.72405017,-6.421762855,-5.972852929,-7.523104619,-3.125699299,0.710830561,-2.002808212,-0.210411255,10.67695807,-6.370708823,10.55456388,-3.603517536,-2.183684273,-6.150877825,-7.313039303,-3.23022213,-2.545773114,-5.347247762,3.998841499
-0.034472534,-6.426921588,-4.901175921,-6.70905867,-4.283446704,0.943388489,-0.089621575,0.524749961,14.59978216,-5.49683046,12.83321746,-0.791516981,-0.175073907,-4.295404338,-9.297267171,-3.26927595,-2.412788215,-5.164943074,2.090684328
-0.033353753,-5.264337532,-2.669267776,-4.017623803,-4.402465361,1.227341374,2.530117558,2.287120578,20.24903262,-3.566096279,16.70765741,3.70740211,3.025313745,-1.390633464,-9.628166013,-2.35805115,-1.704800643,-3.524141136,1.085418802
0.982517228,-3.008241016,0.166386061,-0.009420124,-3.242091227,1.731972807,5.094238352,4.649159627,25.44905308,-0.838570395,21.16478721,8.833104347,6.116876735,1.4923069,-5.826442401,-0.440400095,-0.417980893,-0.802198893,1.445032858
2.589921305,-0.405218747,2.642105794,3.79405854,-1.227048022,2.437348485,6.89748462,6.78575159,28.68179379,1.98286213,25.01445539,13.22112763,8.0228639,3.258006484,2.241534359,2.000466934,1.095143862,2.003650663,2.674216636
3.98360912,1.581045284,3.97260377,6.028645758,0.825276103,3.151633225,7.678483419,7.996173454,29.84605004,4.234882492,27.4481129,15.77901968,8.40367204,3.466693236,11.82619114,4.194853387,2.368273026,3.859121285,3.788089479
4.53651892,2.358200533,4.02779256,6.46474402,2.233400994,3.660078122,7.731917199,8.171923222,29.99872513,5.737492585,28.3506671,16.20771908,7.736951453,2.623387176,18.93826281,5.529290601,3.112984223,4.261526844,4.103964616
4.19135586,1.994157228,3.344861561,6.039291183,2.849581752,3.874718928,7.661709168,7.852194702,30.37620375,6.838493204,28.22344543,15.18250245,6.950047627,1.82387754,21.0226631,5.861123347,3.345462957,3.417832776,3.690704755
3.398939973,1.033137889,2.676542043,5.958665733,3.039133284,3.874310868,7.965462214,7.821699723,31.48781692,8.021621514,27.83806225,14.05821718,6.869404013,1.988554347,18.62434914,5.507346039,3.286078729,1.973547684,3.144731565
2.688815137,0.032369946,2.42860215,6.666100406,3.279823615,3.82769358,8.760505806,8.549543121,32.93061421,9.399371564,27.87316548,14.19539715,7.831430837,3.241749012,14.73697607,4.957038434,3.149614131,0.550393107,2.954803339
2.244098379,-0.806634697,2.408450116,7.542562534,3.716209341,3.880494653,9.825510847,9.873563629,33.94620761,10.51237745,28.71021767,16.21606685,9.638772697,4.888741076,12.33272952,4.531614199,3.005166863,-0.570376545,3.046941179
1.82427085,-1.663110355,2.04848359,7.546614869,4.031634362,4.086907049,10.86146281,11.13338823,34.15806836,10.6175128,30.38701815,19.58545898,11.78806707,5.979623188,12.01927601,4.208762011,2.793078305,-1.460097505,2.897178374
1.070835555,-2.825477086,0.900144787,6.191810852,3.737000573,4.405064793,11.71045445,11.62157956,33.85536234,9.258016841,32.60811289,22.8029498,13.74376723,6.000316781,11.68071277,3.68043214,2.43898464,-2.342787333,2.069846851
-0.092536294,-4.385303679,-0.990848479,4.00414213,2.634270718,4.721616093,12.35024577,11.01724386,33.645048,6.680591821,34.76844395,24.1803382,15.08338091,5.158465302,8.38578215,2.566396701,1.935714804,-3.392324168,0.665371116
-1.321479528,-6.137569417,-3.092753387,2.090742305,1.070630908,4.877711808,12.7226663,9.526878426,33.85605853,3.775087457,36.06677372,22.82244037,15.51199949,4.086422187,1.039739342,0.64899732,1.322715308,-4.658734572,-0.732668822
-2.094582008,-7.724808602,-4.734156081,1.230880726,-0.230963387,4.710452577,12.62469885,7.701472004,34.26266277,1.570733573,35.80105651,19.22945902,14.86594811,3.26303255,-8.34170003,-1.973676723,0.609834803,-6.099045518,-1.551224378
-2.129489181,-8.869031287,-5.504918036,1.287673185,-0.639521007,4.135369416,11.82859733,6.117307105,34.36448979,0.64731376,33.7852005,15.09308775,13.19109464,2.661456332,-15.77693962,-4.865458761,-0.250307441,-7.610641913,-1.70295306
-1.618274392,-9.503121854,-5.433492479,1.420192926,-0.024093905,3.24710648,10.35679617,5.144631322,33.93500342,0.865594335,30.62982495,12.33259178,10.84197789,1.901790547,-18.03321947,-7.375432321,-1.293142843,-9.019608142,-1.612182806
-1.086761052,-9.735998856,-4.870352992,0.862213304,1.198526143,2.353780601,8.646037215,4.896385653,33.30421956,1.569328666,27.60111696,11.93605538,8.456066053,0.733623066,-14.86164928,-8.8878646,-2.438636155,-10.07685098,-1.779209991
-0.99833458,-9.729398922,-4.224757937,-0.436084562,2.387654149,1.866258145,7.385782234,5.2923896,33.08926219,2.069200493,26.00844422,13.36351428,6.720393694,-0.611248109,-9.106480433,-9.115695517,-3.468610548,-10.53700373,-2.29061285
-1.426109556,-9.604040317,-3.7610247,-1.838930724,3.105281622,2.064100158,7.0855448,6.1264906,33.59873363,2.047370512,26.43286823,14.9425282,6.024132684,-1.531287019,-4.683296495,-8.284238443,-4.136697997,-10.30765468,-2.725338069
-2.044303179,-9.421393311,-3.551413483,-2.640351779,3.327151404,2.884031665,7.685622579,7.096491271,34.45153653,1.629054733,28.30553107,15.0203774,6.22411127,-1.549592811,-3.984854662,-7.054775119,-4.336942332,-9.551558784,-2.539892108
-2.416602116,-9.2000934,-3.535893612,-2.670727244,3.322205237,3.906218387,8.538727067,7.84779932,34.78347577,1.143057437,30.17686736,13.09213604,6.710031275,-0.76050745,-6.576339946,-6.168520888,-4.186945322,-8.623539585,-1.579902051
-2.325580773,-8.914434291,-3.587972543,-2.354390293,3.35381635,4.592950428,8.822511904,8.087205056,33.90875591,0.811119089,30.56334853,10.11704853,6.756782298,0.174785199,-9.94544987,-5.994393615,-3.939713049,-7.850825009,-0.254781844
-1.883131401,-8.482589296,-3.547359172,-2.213124456,3.469668671,4.638631924,8.1034371,7.736760823,31.90044221,0.61215095,28.84182169,7.804552785,5.94552346,0.509628248,-11.52066094,-6.283988871,-3.781989862,-7.313521816,0.778763188
-1.37020439,-7.798986541,-3.258538688,-2.321825512,3.529547249,4.178046578,6.639628535,7.012836381,29.60624165,0.38847849,25.60535754,7.393253269,4.385593898,-0.009916452,-10.37107103,-6.341711763,-3.681277627,-6.807730336,1.136573856
-0.979667768,-6.830032442,-2.651735636,-2.245613065,3.396213117,3.681676682,5.198407015,6.331036797,28.0792775,0.060897172,22.25825555,8.807195626,2.612217368,-0.940535769,-7.465404225,-5.533080565,-3.413015539,-6.035628659,0.968584019
-0.686920981,-5.703180393,-1.823457645,-1.515904815,3.08631953,3.598074353,4.525530056,6.059885491,27.87928019,-0.246202111,20.14848022,10.77788671,1.254621898,-1.480813757,-4.585708588,-3.780441599,-2.753817377,-4.873949654,0.746367081
-0.326772132,-4.678604742,-1.017702407,-0.182681972,2.746232301,4.006304186,4.852513319,6.276836764,28.78453379,-0.270189486,19.82890628,11.79502599,0.699589828,-1.085950143,-2.941108006,-1.664047739,-1.68806214,-3.495106145,0.795216179
0.235467552,-3.970812977,-0.463464016,1.104270651,2.500473085,4.546368216,5.777959366,6.702478996,30.08938223,0.19420507,20.89906871,11.15253593,0.936711434,0.123600218,-2.534364778,-0.020291837,-0.461713801,-2.232443584,1.013365177
1.009527448,-3.536801493,-0.16312098,1.60074715,2.340644185,4.686156643,6.565848554,6.87209176,31.17412085,1.121024728,22.43602384,9.337930976,1.622833171,1.463202242,-2.553567745,0.679575805,0.559405723,-1.301285924,1.03380423
1.922961921,-3.028699039,0.180713769,1.122726759,2.171745614,4.121032106,6.610264972,6.434056761,31.84583604,2.220557094,23.62642507,7.557491317,2.274271451,2.188555242,-2.23508627,0.688157156,1.11430277,-0.620892866,0.663047687
2.908713326,-2.017550452,0.979706282,0.247924587,1.967074131,2.998258654,5.742001444,5.374282883,32.20726961,3.060218556,24.14815035,6.843169883,2.46913396,1.996272731,-1.421216593,0.773353132,1.183935529,0.094633915,0.166621303
3.908651884,-0.373473835,2.401016574,-0.153339742,1.865471248,1.799751896,4.2228574,4.023809471,32.26670373,3.260519798,24.12274531,7.436804979,1.995679846,1.153590507,-0.467061187,1.578690173,0.952444017,1.040320073,0.108207468
4.779576021,1.486969803,4.101948445,0.323226004,2.091216032,0.989166584,2.519763317,2.863955196,31.73798747,2.667928446,23.81288527,8.837055608,0.933344079,0.212757251,0.249111473,3.050779394,0.649122154,2.074167472,0.864040834
5.230948885,2.733476621,5.310434958,1.227352649,2.747482776,0.710552917,1.071114761,2.276426698,30.28396328,1.441321663,23.38452432,10.33016555,-0.347125423,-0.412739043,0.711834816,4.411042252,0.410106754,2.755462283,2.24584886
4.933329639,2.618575507,5.269092945,1.596332591,3.669693008,0.76916078,0.185572985,2.399122453,28.0089824,0.029997065,22.9088343,11.49070319,-1.296750236,-0.669330842,1.272146587,4.73468151,0.255825924,2.673554631,3.585081641
3.779165774,1.024168455,3.769913638,0.763196089,4.493054723,0.882292996,0.05331332,3.147093353,25.71822707,-0.955977599,22.51285677,12.27715035,-1.418655349,-0.757092984,2.370013941,3.706638,0.162818711,1.819537775,4.225310148
2.092349263,-1.34549822,1.393050255,-1.043764857,4.907431517,0.9652525,0.760931642,4.334275388,24.60907204,-0.962381211,22.45125345,12.77694651,-0.531917718,-0.856142084,4.24454789,1.950903773,0.128766184,0.689238021,4.003339251
0.559520308,-3.311523338,-0.761689237,-2.821946565,4.899297325,1.200171594,2.250135161,5.781785567,25.53456075,0.265585516,22.97462415,12.960235,1.089241003,-0.954799976,6.781562251,0.636433839,0.156749411,-0.002366237,3.305866705
-0.14761684,-3.914365983,-1.709718416,-3.548151617,4.77233661,1.8334251,4.272118675,7.346572878,28.37670506,2.518451385,24.09695484,12.71910989,2.826142268,-0.912224796,9.469446219,0.627432258,0.1845351,0.189111646,2.665882585
0.179606945,-2.996473,-1.171006047,-2.951277519,4.911883811,2.887925454,6.435087798,8.891752438,32.03513743,5.145569611,25.49346301,12.11905644,4.048057435,-0.654695231,11.43034631,1.825242159,0.055393352,1.103521767,2.273810068
1.112680331,-1.276854494,0.280666753,-1.6800376,5.471093287,4.053689258,8.368458802,10.26611184,35.08097486,7.300427237,26.66678841,11.53910911,4.468814877,-0.291124125,11.62999233,3.230063713,-0.403213555,2.059126677,1.851647706
1.854895983,0.12959161,1.604103262,-0.747149705,6.227937359,4.868995818,9.90571169,11.33275774,36.61229273,8.314179643,27.28642652,11.48184076,4.289263942,-0.029585714,9.389477108,3.70707719,-1.232174073,2.309132093,1.004793829
1.785895764,0.412869911,1.944688369,-0.719992402,6.729211313,5.055180783,11.14259327,12.02337172,36.69531056,8.005893369,27.44165475,12.18878399,4.029035894,0.023155876,5.064048285,2.888128631,-2.24527927,1.549795202,-0.276438316
0.886264471,-0.482154334,1.120817327,-1.31199068,6.610080456,4.732676521,12.31278155,12.36100131,36.10607183,6.752249148,27.59842861,13.43798445,4.176175164,-0.015299098,0.398171358,1.511994735,-3.084048793,0.117945148,-1.445329292
-0.276051022,-1.92684653,-0.353181349,-1.675681363,5.843082697,4.33822819,13.57030072,12.42220898,35.62778954,5.272580327,28.27517521,14.76271149,4.911648334,0.122660226,-1.977595919,0.914897387,-3.40742177,-1.256337079,-1.754268873
-0.982919667,-3.095915945,-1.673564959,-1.122803825,4.735869472,4.30469633,14.84734715,12.26921838,35.47334344,4.25406871,29.66554571,15.91946822,6.08995203,0.6466977,0.054850717,2.023604184,-3.091720119,-1.953837088,-0.861833456
-0.88720783,-3.496872327,-2.271533229,0.322327378,3.701231407,4.753911955,15.89622096,11.91462214,35.25332886,4.031765842,31.47069783,17.14596344,7.440909707,1.550229465,6.539403562,4.588753767,-2.304306505,-1.862691512,0.827462539
-0.222730389,-3.188699924,-2.104651337,1.954299957,2.993887438,5.436020927,16.47553285,11.35232646,34.44392598,4.48929818,33.0460193,18.89890611,8.786574643,2.633357576,14.85612954,7.232512284,-1.407784843,-1.396307787,2.402295503
0.43602457,-2.601210863,-1.564831886,2.930863019,2.610854427,5.94599628,16.5296822,10.62362039,32.91814175,5.199068619,33.75275361,21.25461934,10.08623986,3.670249151,20.79761031,8.296528898,-0.769979394,-1.145096988,3.089263406
0.646775306,-2.15570329,-1.126907626,2.870546669,2.397955909,6.030933773,16.22564228,9.84686371,31.09479578,5.681692611,33.29175476,23.54192548,11.30654965,4.558163334,20.88783896,6.904469534,-0.603461122,-1.432564623,2.785754832
0.418814026,-1.989077186,-1.014802593,2.053898227,2.234420608,5.745510921,15.83018408,9.164155349,29.60877016,5.622478749,31.83953598,24.65224291,12.2877123,5.315561512,14.52043795,3.515479194,-0.910396052,-2.095164979,2.057289811
0.139602097,-1.951083343,-1.10736644,1.131352275,2.123413423,5.352648291,15.52838805,8.631899299,28.80293971,4.947517655,29.93921951,23.88067067,12.77557803,5.949048926,4.438562488,-0.377061473,-1.521279055,-2.624173202,1.625243933
0.198406575,-1.812346831,-1.110110252,0.618471521,2.124094472,5.076183228,15.30954147,8.142689792,28.46335585,3.768451843,28.21772515,21.60003188,12.6124347,6.337159597,-4.867491927,-3.151451048,-2.169835254,-2.543069293,1.788754172
0.633718713,-1.478793458,-0.833946782,0.569147702,2.215090353,4.918610131,14.97743801,7.458462604,27.99268253,2.274541563,27.05733434,19.09691691,11.89734688,6.262830707,-9.820703827,-3.941268079,-2.567607272,-1.740422979,2.256932837
1.09105402,-1.047895919,-0.368695444,0.621863363,2.242305311,4.683307125,14.2534649,6.358468427,26.85838793,0.650474444,26.36198993,17.56826223,10.92554945,5.581899859,-9.691746707,-2.955897925,-2.485238983,-0.534871917,2.498380661
1.110895114,-0.700687132,-0.033857117,0.318458597,2.024781755,4.162914967,12.90499132,4.816050407,24.96159449,-0.947130291,25.54710284,17.05630906,9.9173172,4.377890178,-6.555116735,-1.136655368,-1.850687324,0.544423014,2.272170819
0.502841158,-0.555118608,-0.151200376,-0.562206212,1.544506526,3.326850116,10.85380775,3.084207562,22.67964651,-2.367266453,23.82278328,16.28204765,8.772245703,2.952951944,-3.456536384,0.510020032,-0.828097973,1.082643063,1.867956714
-0.488846874,-0.610680224,-0.802236602,-1.856762634,1.058406456,2.359628034,8.248437541,1.619568027,20.61300596,-3.430506825,20.70038373,13.67162764,7.111551388,1.644983972,-2.241745716,1.422833292,0.198000236,0.982450443,1.856418109
-1.34016407,-0.809889472,-1.739247314,-3.094989295,1.016561126,1.536017989,5.479365559,0.874325278,19.26748211,-3.92009791,16.46903726,8.844308892,4.640680724,0.616662603,-2.626602176,1.573070869,0.776022854,0.43511981,2.58290212
-1.585397884,-1.134137771,-2.516286616,-3.723647519,1.811571535,1.046980668,3.096773044,1.067950464,18.88117431,-3.627931189,12.29840085,3.314313235,1.559062996,-0.207264584,-3.027637107,1.212767733,0.620120143,-0.272839886,3.84952471
-1.086733435,-1.631741448,-2.763372847,-3.373776632,3.509584829,0.910094543,1.612154574,2.063117232,19.42837044,-2.46361656,9.765090491,-0.330140407,-1.35871443,-1.002319603,-2.286759074,0.575283227,-0.222555958,-0.947459761,5.051760119
-0.072826154,-2.349689367,-2.429999447,-2.08172041,5.733512284,1.009930761,1.248236509,3.411308283,20.68931779,-0.589042463,9.962250006,-0.297062123,-3.15974051,-1.825994893,-0.802737768,-0.237176294,-1.397179472,-1.537268209,5.637133012
1.027086293,-3.232515437,-1.833444169,-0.366539254,7.778161736,1.206367707,1.786796442,4.545188732,22.28935313,1.513494288,12.71271565,2.90584082,-3.341245709,-2.508926654,-0.17103743,-1.165952696,-2.455368491,-2.044501242,5.48909331
1.802511853,-4.080521372,-1.463109386,0.932729893,8.904892093,1.412942452,2.654755775,5.027955098,23.73365169,3.144352189,16.46471176,6.598795859,-2.229782368,-2.754304375,-1.704344773,-2.07019539,-3.10788034,-2.407963176,4.928605201
2.00407757,-4.606878371,-1.648935639,1.06953476,8.67184357,1.598631843,3.248801209,4.751050007,24.53654208,3.690788438,19.07372381,7.740805042,-0.780382672,-2.369928567,-5.11449747,-2.718698914,-3.33010967,-2.473044755,4.372605843
1.586665492,-4.551677713,-2.301154463,-0.11742216,7.144075149,1.743451167,3.311109103,3.996405878,24.46760074,3.015748585,19.0662774,5.129947449,0.091343211,-1.446858679,-8.474496966,-2.90671746,-3.251602492,-2.070364811,3.978275463
0.7064741,-3.771997777,-2.898078322,-1.944824908,4.88514036,1.808445002,3.088219167,3.329534523,23.7759551,1.692283486,16.57634381,0.316874753,0.146107393,-0.340832811,-9.523106692,-2.570970703,-2.940358894,-1.120589259,3.587303136
-0.293584349,-2.25841581,-2.746564449,-3.113995925,2.724773994,1.747411126,3.127900415,3.351429402,23.18118556,0.864977396,13.29036726,-3.503697617,-0.070070532,0.532679752,-7.301679713,-1.780942817,-2.282796222,0.336812803,2.995269274
-0.941141167,-0.096293177,-1.36142566,-2.38840631,1.395372447,1.536960248,3.831671639,4.400686646,23.54359772,1.719979806,11.38959985,-3.802986782,0.266509352,0.940115502,-2.869926918,-0.61569253,-1.07827227,2.210816719,2.275120256
-0.781814967,2.566209068,1.270623588,0.668763685,1.202437869,1.188398515,5.08809522,6.342955372,25.37617554,4.820509922,12.18879619,-0.471967415,1.539236786,0.941131557,1.416862736,0.936978086,0.722522358,4.433271748,1.839867474
0.406009781,5.497263886,4.697117883,5.399370575,1.903080451,0.737204261,6.285893373,8.578783912,28.52725784,9.717774505,15.40166888,4.296777907,3.344628476,0.807581913,3.494829511,2.92372094,2.841487062,6.923229959,2.165098236
2.446233994,8.320800006,8.243506799,10.43727487,2.881602234,0.23996801,6.739112143,10.31621823,32.28215771,15.13153667,19.51564042,7.83785478,4.801739605,0.823282358,2.875441539,5.216183055,4.726844389,9.419380628,3.391136232
4.781896353,10.48249808,11.30468573,14.53543326,3.548261699,-0.200464852,6.237399475,11.0078031,35.83696374,19.6455434,22.95024383,9.060423807,5.267592833,1.102655043,0.770568672,7.316702157,5.820004991,11.31080699,5.129864086
6.702303307,11.31326557,13.48702211,17.254059,3.731195255,-0.408366824,5.310085794,10.71893654,38.80988318,22.50331546,25.11534092,9.100139529,4.87361934,1.530760301,-0.897232134,8.388117997,5.845083646,11.67049498,6.63517744
7.65957941,10.2111988,14.54896661,19.02165308,3.79794648,-0.165582735,4.973722238,10.17699007,41.40895125,23.98333886,26.60409568,10.12763101,4.439984615,1.838744593,-0.792446945,7.5842517,4.915339264,9.600207007,7.213681928
7.483089962,6.888754685,14.26647947,20.55237354,4.390900284,0.674225702,6.097757857,10.40051972,44.1219473,25.08556188,28.45161347,13.35682929,4.829303878,1.757257234,1.12375903,4.53760479,3.404429028,4.768073996,6.589296551
6.372699177,1.57679698,12.40994134,22.09506625,5.921198141,2.043167928,8.805311671,12.06730647,47.15473856,26.72285142,31.11097035,17.90385033,6.25529159,1.168949142,3.81895675,-0.286532091,1.716215683,-2.178563846,5.003202669
4.711235129,-4.926565625,8.907239728,23.11134045,8.162922738,3.603949048,12.315986,14.99070616,50.04398124,28.96461902,33.97977617,21.40318472,8.09479683,0.195670642,6.00888873,-5.62068612,0.143305114,-9.644628048,3.039684341
2.853000232,-11.42018723,4.075659715,22.63398603,10.2614102,4.865452527,15.34228144,18.07236858,51.75584819,30.86569872,35.82816001,21.83390493,9.341502106,-0.819484191,6.918324614,-9.850357624,-1.110397544,-15.64731677,1.333591594
1.028602348,-16.64302563,-1.299411403,20.02103096,11.20319212,5.433826119,16.78491848,19.84140074,51.23877448,31.02490591,35.74165262,19.04616485,9.327377617,-1.444833216,6.535419613,-11.68404766,-1.839367898,-18.65366837,0.327369538
-0.616804387,-19.67278413,-6.176154537,15.52186689,10.46174993,5.245713236,16.29182461,19.31050403,48.07733199,28.51644781,33.79969142,14.773505,8.14143099,-1.369604035,5.363450781,-10.69842883,-1.837491281,-18.2399224,0.149049203
-1.949682383,-20.21568086,-9.676976457,10.23591924,8.378192521,4.615528996,14.36090189,16.62722142,42.82185753,23.57250351,30.96233029,11.18575608,6.443731927,-0.595195517,3.986250976,-7.48561762,-1.041685157,-15.19911886,0.599526131
-2.844802515,-18.65949813,-11.4589536,5.518741016,5.992428122,4.045336861,11.97464526,13.07076416,36.78165892,17.55389652,28.30028371,9.212055579,4.871624652,0.512168894,2.758240418,-3.345637699,0.306881485,-11.05172567,1.232359963
-3.264334791,-15.86716486,-11.78863716,2.285117115,4.414223687,3.914571028,10.03299775,10.33459925,31.40742917,12.21902405,26.21995938,7.991716653,3.550483766,1.376222172,1.723355519,0.29992538,1.677867776,-7.270193642,1.534031124
-3.331028201,-12.81087096,-11.27978091,0.676601082,4.149073883,4.258502371,8.927407232,9.506607868,27.6242142,8.7629739,24.29561893,5.832807905,2.105672837,1.519181384,0.694523277,2.477356899,2.513620764,-4.671473308,1.181359785
-3.297821337,-10.21865828,-10.48933698,0.231662047,4.829459989,4.783978815,8.461357177,10.39191408,25.47778612,7.237144295,21.79162904,1.820520959,0.140217159,0.852365944,-0.595688194,2.962508215,2.586153163,-3.274711462,0.259624456
-3.406211553,-8.383962859,-9.650926676,0.322962951,5.517015727,5.101129866,8.096302855,11.63602111,24.25598674,6.692271393,18.4017847,-3.261042439,-2.239372875,-0.239575097,-2.304531557,2.227145997,2.175161034,-2.592913779,-0.729336149
-3.730845362,-7.188898504,-8.69520345,0.506016034,5.343776081,4.998890712,7.337547379,11.59716639,22.98495699,5.90915445,14.60336645,-7.401337597,-4.292668822,-1.090779862,-4.277345461,1.120324213,1.897706753,-2.069473045,-1.149418155
-4.131107343,-6.279685145,-7.476258708,0.601961738,4.041989434,4.572870298,6.044482124,9.418912079,21.02232063,4.217473854,11.38923406,-8.777962986,-5.024115804,-1.110559582,-5.941467196,0.474086059,2.285576642,-1.353870936,-0.669620115
-4.350421176,-5.27707752,-5.982149249,0.601930388,2.023916349,4.134371712,4.527576435,5.60945026,18.44411341,1.884234413,9.655387873,-6.947142572,-3.786034421,-0.079583869,-6.445777311,0.809094504,3.416890382,-0.311442706,0.443353015
-4.190767453,-3.928811357,-4.361725579,0.581966359,0.016495147,3.990240111,3.409475659,1.75256161,16.03584235,-0.132955287,9.746057637,-2.925155348,-0.671941013,1.791994679,-5.083577066,2.223461615,4.88056097,1.105625443,1.434236382
-3.639078905,-2.177798485,-2.786041577,0.700497629,-1.435652074,4.261390294,3.325582434,-0.45342804,14.88957885,-0.855074511,11.4431033,1.753884261,3.541930875,4.049057839,-1.801938079,4.445892297,6.096088245,2.923184212,1.546785256
-2.869673797,-0.168011781,-1.309881272,1.182180488,-2.235234407,4.853857226,4.600722337,-0.197135617,15.80130307,0.083768243,14.27239717,6.113012403,7.805569787,6.257012648,2.561264387,6.978453268,6.73140428,5.063515706,0.55934417
-2.143347219,1.790776429,0.118845207,2.175715235,-2.622898782,5.567230562,7.054372504,2.039322002,18.77578578,2.22507962,17.77377576,10.06198148,11.24274138,8.155103867,6.571997778,9.257434021,6.888558254,7.221361315,-1.037106807
-1.686116124,3.304070019,1.509993407,3.535388131,-2.850096661,6.230308462,10.04259927,4.884259141,22.91516215,4.580616234,21.5184998,13.85136426,13.38406111,9.624078311,8.936542858,10.79456952,6.922548303,8.875533493,-2.374481993
-1.618002879,4.025923232,2.694387497,4.737668063,-2.932297156,6.761279261,12.73642801,6.96513697,26.78128307,6.192882128,24.98073993,17.30450318,14.15656308,10.5581147,9.234411766,11.28609488,7.061092953,9.505362373,-2.817315225
-1.944570727,3.809045786,3.348712121,5.103588593,-2.672728836,7.136871636,14.50289114,7.669781153,29.05974542,6.590958946,27.53744626,19.61823267,13.76957831,10.79924978,8.135468905,10.67649101,7.152554173,8.887705512,-2.384835802
-2.582290583,2.788418439,3.185451056,4.246268083,-1.901273315,7.336403813,15.17750273,7.316305483,29.16561339,5.89428948,28.717116,19.93818692,12.62263993,10.21405452,6.907403184,9.153000099,6.756464693,7.248982395,-1.667177999
-3.39264449,1.322907298,2.157713102,2.417994361,-0.699259276,7.333003608,15.06510691,6.715771504,27.45081001,4.581679531,28.5076161,18.16704653,11.23023082,8.844079007,6.517535356,7.055707321,5.504267152,5.137164299,-1.320565706
-4.224444163,-0.195556429,0.510190691,0.44198604,0.58884278,7.139589349,14.67090853,6.520697627,24.91127053,3.153611855,27.39795866,15.23173294,10.08118374,6.978998034,6.943521052,4.72783762,3.436448884,3.093404207,-1.560180014
-4.966791388,-1.54807541,-1.358938269,-0.783590013,1.564703144,6.849191874,14.34194402,6.838682746,22.60211102,1.934214739,26.03543522,12.51362345,9.421442414,5.058524843,7.185138338,2.378460146,1.044978878,1.363363102,-2.056890441
-5.589005786,-2.758169333,-3.09866822,-0.864880676,2.031078923,6.60463627,14.06056256,7.326379081,21.13774778,1.095322562,24.75135209,10.89311816,9.090000475,3.455120518,5.986389083,0.041654821,-1.010851968,-0.142811949,-2.296737025
-6.12659284,-3.961319726,-4.502158714,-0.133895777,2.089552884,6.497447136,13.52106005,7.59544362,20.55895879,0.782652392,23.38040995,10.2069309,8.580564685,2.295565202,2.777027428,-2.333175117,-2.294042055,-1.632730211,-2.074118813
-6.602569761,-5.171436376,-5.451192415,0.657838685,2.015931589,6.471386349,12.41379516,7.555938068,20.56328464,1.148506939,21.56791696,9.561094356,7.362123282,1.453232343,-1.815325208,-4.714223363,-2.799231194,-3.151099397,-1.688208543
-6.938568407,-6.143523194,-5.818544666,0.919420247,2.02723859,6.321769705,10.69312596,7.429026092,20.8401791,2.206335022,19.30340701,8.206450608,5.269608479,0.708065729,-6.236920615,-6.86508077,-2.856477747,-4.471701043,-1.677889592
-6.946344393,-6.476697469,-5.481121989,0.603344813,2.128503175,5.81726343,8.630165195,7.463713227,21.22451598,3.625109142,17.1603038,6.21523737,2.674460488,-0.05644272,-8.884813843,-8.376691088,-2.842365154,-5.24501716,-2.330438035
-6.443613762,-5.91201387,-4.472227046,0.101332314,2.14756775,4.874135784,6.627144181,7.634522212,21.5912727,4.696896818,15.93800349,4.398200054,0.282110252,-0.765783788,-9.012520044,-8.865023109,-2.932287861,-5.269697423,-3.389704716
-5.428614315,-4.600041919,-3.12458081,-0.21064716,1.909249889,3.660902837,4.955022668,7.591344367,21.67186342,4.619357398,15.94701322,3.579968913,-1.31109449,-1.222244434,-7.089746126,-8.222858001,-3.052661643,-4.657771936,-4.213234269
-4.16809794,-3.100090458,-2.006622564,-0.344094285,1.396583231,2.547845143,3.622675263,6.904200438,21.04928848,2.983175472,16.57048456,3.903365851,-1.969958597,-1.249701214,-4.420991334,-6.75370081,-3.010329712,-3.75817763,-4.24487256
-3.090510913,-2.059740525,-1.607741641,-0.644834697,0.771629536,1.917586566,2.463260774,5.3961818,19.41371382,0.13728343,16.58462116,4.782076996,-2.014608215,-0.793748426,-2.310788858,-5.070820251,-2.652060734,-2.904568778,-3.412377962
-2.522843892,-1.777468796,-1.968106311,-1.372952343,0.24907097,1.948092402,1.340188091,3.292743531,16.8874168,-2.881034476,15.09668227,5.525615698,-1.876128711,0.082482424,-1.326857849,-3.788823983,-1.929968912,-2.191101797,-2.141382116
-2.453493117,-1.969579783,-2.55810167,-2.320947087,-0.069768528,2.50202785,0.286685555,1.077695675,14.11052487,-4.886295067,12.37703954,6.054743508,-1.706310076,1.267613987,-1.102884892,-3.176950047,-0.868697211,-1.445250463,-1.011226949
-2.514633618,-1.936023461,-2.564320291,-2.853478194,-0.271915108,3.192288863,-0.531308791,-0.809532135,11.94331872,-5.233366938,9.851572436,7.041935892,-1.265271829,2.653250753,-0.741995505,-2.985911706,0.479641186,-0.400077828,-0.365122452
-2.226135127,-1.030674705,-1.426051491,-2.373753762,-0.561412396,3.586560963,-0.973174203,-2.18002668,10.964763,-4.174723893,9.151848707,9.317414578,-0.173814076,4.125204729,0.501489926,-2.569676051,2.02503101,1.083831332,-0.184328515
-1.338722976,0.890320081,0.759318712,-0.823172657,-1.094393505,3.432456433,-1.040485702,-3.047470452,11.15107401,-2.603089395,10.90128351,13.0300288,1.6869636,5.527116846,2.724413656,-1.252632425,3.595625752,2.91229237,-0.268955752
-0.023800423,3.359434363,3.278154045,1.234858158,-1.835512484,2.776867804,-0.838003895,-3.396434492,12.00534026,-1.334994863,14.1858641,17.28077849,3.96324864,6.659013971,5.352875105,1.254496371,4.93902369,4.815650518,-0.494615273
1.235847977,5.596938255,5.277667441,3.046538486,-2.531958664,1.918970226,-0.420111425,-3.001136679,13.04752483,-0.4523638,17.15580594,20.56387293,5.976528862,7.333368079,7.546526768,4.621824104,5.808492509,6.48514954,-0.882862595
1.974395977,6.99081765,6.328632914,4.260927624,-2.824560021,1.233439056,0.315102221,-1.492158231,14.25811496,0.787983613,18.3139045,21.6910752,7.111340308,7.448061634,8.708672365,7.987001478,6.080407195,7.667413998,-1.446308705
2.045445745,7.413519479,6.652939042,5.176199567,-2.43421868,0.971734795,1.551472847,1.339099446,16.07801892,3.368865687,17.49647396,20.49855587,7.145022787,7.017298263,8.756254464,10.32866938,5.802017302,8.177277157,-2.018082052
1.68237007,7.178397479,6.85699511,6.419766485,-1.321230221,1.155151743,3.329613352,5.218428313,18.92178002,7.655858392,15.80627144,17.84029341,6.297605556,6.145886828,8.018819386,10.94378596,5.124010822,7.890195297,-2.300524804
1.295123068,6.721716512,7.399903043,8.331272603,0.269472791,1.612315793,5.355570969,9.312514754,22.58451925,12.90604872,14.60935416,14.95501144,5.021462637,4.989156894,6.917969401,9.790794975,4.181260005,6.790110009,-2.137904792
1.180027556,6.286178134,8.225305941,10.57893652,1.9048487,2.123037603,7.033795035,12.50165689,26.05982826,17.53781785,14.45090147,12.7485281,3.737549976,3.744963953,5.716068313,7.523761792,3.038426554,5.061488956,-1.754320189
1.36124083,5.83725618,8.83704479,12.34360876,3.155778249,2.565431884,7.752338029,13.86330388,27.99877053,20.00808361,14.76340408,11.4999327,2.707433927,2.66737149,4.519814397,5.191060366,1.753816524,3.118024702,-1.671216101
1.648650546,5.221565882,8.728686715,12.91981854,3.784876094,2.965922373,7.243051618,13.08395598,27.53796585,19.69821774,14.53539327,11.0624203,2.055718655,2.036738593,3.474574662,3.73655669,0.488683698,1.467182484,-2.287788107
1.815446123,4.376362753,7.794786177,12.23036671,3.827588688,3.422641232,5.761060737,10.56825391,24.90528995,17.20711357,13.29397146,11.21178416,1.813083908,2.04081149,2.900882261,3.545234755,-0.475921225,0.438752143,-3.446003303
1.72755076,3.387744789,6.388123734,10.83470826,3.521159378,3.965984719,3.947094219,7.21127118,21.34128263,13.88844996,11.52595934,11.7637536,1.876876017,2.617444721,3.167676149,4.265359561,-0.880603714,-0.047063461,-4.39052296
1.343371525,2.365642701,5.001385127,9.452060533,3.127330803,4.470179266,2.464577185,3.995276572,18.36596995,11.00758183,10.19896468,12.4194949,1.942827099,3.395131357,4.343644759,5.009800097,-0.696951392,-0.4724075,-4.251914959
0.646829505,1.28979569,3.869953146,8.428195478,2.765082615,4.696626353,1.662898679,1.637926011,16.8976543,9.121672693,9.857417399,12.6440481,1.567366317,3.84195023,5.914924465,4.843757797,-0.217646866,-1.42501547,-2.737689528
-0.36599791,0.008990371,2.844105689,7.596565103,2.367011109,4.451983923,1.486371958,0.436908443,16.82558461,8.051519076,10.13793326,11.87887174,0.436873019,3.584738207,6.879752789,3.30352936,0.091901779,-3.184418123,-0.487022634
-1.608097475,-1.578775364,1.627715645,6.613119943,1.789335484,3.750923649,1.655787293,0.313275998,17.28739308,7.332041599,10.15238198,10.0276387,-1.299744573,2.696907523,6.273781404,0.658497157,-0.093596771,-5.481437039,1.245639301
-2.82329149,-3.328938325,0.152093571,5.420267239,0.993645571,2.857436785,1.951644205,0.960568315,17.38736671,6.697808698,9.386319506,7.786234191,-2.925136524,1.723988989,3.824324206,-2.238082674,-0.713188909,-7.623438441,1.403897763
-3.638722665,-4.843519479,-1.263333847,4.39779801,0.160198791,2.158014316,2.376781162,2.004287451,16.80930176,6.225676027,8.27625309,6.400410493,-3.46135464,1.376743318,0.265658159,-4.427244296,-1.345753194,-8.920857527,-0.14058189
-3.767892464,-5.705604722,-2.116979071,4.065620883,-0.363067859,1.940673444,3.098277228,3.128266176,15.92130425,6.118561529,7.902659578,6.877547822,-2.265550914,2.069291031,-2.966514192,-5.367168295,-1.508317732,-9.12393539,-2.486497069
-3.221599125,-5.780429035,-2.119014431,4.626395048,-0.251998108,2.225840213,4.25248259,4.162598076,15.39022428,6.431563362,9.032168802,9.191623248,0.487438938,3.620435574,-4.515789599,-5.181796939,-1.003896498,-8.558939451,-4.31099004
-2.33142943,-5.319808343,-1.42064572,5.785225736,0.591726588,2.762023582,5.791547435,5.122228117,15.67113308,7.039198152,11.3533443,12.13488026,3.820194385,5.343182695,-3.862490941,-4.48454198,-0.045464022,-7.863362217,-4.737173584
-1.521308066,-4.750879756,-0.467191762,7.021755146,1.967796871,3.183984561,7.48945796,6.166582682,16.75680266,7.85072575,13.61926785,14.03088976,6.513030501,6.474631933,-1.559179435,-3.899600003,0.943401163,-7.50760222,-3.830390671
-0.980688525,-4.299004323,0.401460279,8.059413718,3.478978749,3.220372723,9.077597766,7.468747927,18.29702584,8.996561497,14.63089291,13.85279705,7.844477476,6.649850952,1.189474376,-3.604286141,1.688721019,-7.444470888,-2.398169598
-0.505806443,-3.759601174,1.245415362,9.078664646,4.7280075,2.814249716,10.37765971,9.046678144,19.89276509,10.71767216,14.24208887,11.93448985,7.989854372,6.092741866,3.279677667,-3.205194822,2.290635924,-7.136315471,-1.307056409
0.334635896,-2.639753454,2.435639309,10.44888843,5.47376719,2.09664133,11.32534121,10.6672819,21.2878113,12.99564002,13.50880749,9.734744643,7.796166802,5.409450889,4.269365847,-2.038098736,3.12379786,-5.94277886,-0.871212961
1.813114997,-0.596641042,4.235014155,12.20927851,5.662124358,1.264562026,11.89579303,11.91868403,22.34981313,15.27413727,13.81326462,8.819572871,8.112907553,5.159212645,4.415790831,0.30755515,4.489648595,-3.603902574,-0.758614458
3.736685493,2.159177584,6.405574902,13.79528285,5.355495187,0.471782374,12.03642109,12.44044598,22.95936026,16.6218919,15.67124022,9.810963235,9.181369241,5.520107805,4.275087836,3.597006739,6.301205678,-0.494664894,-0.417230448
5.479341683,4.832208147,8.203308942,14.3232002,4.655675441,-0.195762246,11.69657014,12.17230027,22.98943715,16.32643274,18.22005517,12.05095378,10.51840306,6.262898347,4.247595653,6.965510874,8.058711624,2.512973501,0.380483675
6.353589058,6.449765001,8.813501526,13.25283361,3.689986187,-0.676415993,10.93438499,11.43452265,22.41496984,14.48395388,19.82801672,14.1607907,11.33557517,6.994366052,4.410415483,9.344617249,9.145132818,4.487792353,1.325713385
6.05129118,6.438963603,7.909684756,10.87805303,2.642980423,-0.89618956,9.984141529,10.7455011,21.40685447,12.05782469,19.33112059,15.0036494,11.1320618,7.441622711,4.668894126,10.03076008,9.221408696,4.905479263,1.832078628
4.824974448,4.963733996,5.898907345,8.191791858,1.754310786,-0.793616778,9.179522247,10.46625771,20.2405952,10.25207221,16.88360502,14.316197,10.00354513,7.563012829,4.973938996,9.037641359,8.430475647,3.876188048,1.511848456
3.283371102,2.78511252,3.65232336,6.179645503,1.23161932,-0.386344903,8.748856376,10.50697774,19.02889337,9.613552822,13.74309958,12.61774281,8.473765805,7.452665593,5.341191174,7.023991146,7.274279307,2.029570085,0.468431104
1.973264829,0.759079949,1.923792589,5.092058821,1.122055814,0.193628434,8.625486081,10.31900787,17.50346728,9.562031707,11.20654723,10.61167712,7.042987022,7.182685113,5.659199061,4.870002471,6.275750217,0.157248034,-0.805605829
1.071456523,-0.656746432,0.901516161,4.297266807,1.255105731,0.747983784,8.434341954,9.217198093,15.10085215,8.775047043,9.605417953,8.649831465,5.840000205,6.748765435,5.533199469,3.19446332,5.680930786,-1.166567645,-1.796744397
0.400054624,-1.547074988,0.223223642,2.860989228,1.336458848,1.117677456,7.696854813,6.847823045,11.38451401,6.203282418,8.180985295,6.672765882,4.627791362,6.150954092,4.419742586,2.116882006,5.395942972,-1.78356343,-2.281809271
-0.291729861,-2.276028209,-0.588338855,0.40295196,1.152310297,1.260414369,6.129666592,3.499800858,6.530950868,1.973642583,5.891177814,4.557640727,3.094980003,5.491207928,2.041325829,1.379110659,5.158193138,-1.892146383,-2.3525219
-1.037940993,-3.065672761,-1.640119423,-2.459621068,0.736510548,1.232879096,3.832960199,0.042248457,1.488202965,-2.518373652,2.422637952,2.450559253,1.148451387,4.949917244,-1.231440073,0.690955014,4.776485614,-1.805065886,-2.194692459
