Channel 1 - P4,Channel 2 - O2,Channel 3 - P8,Channel 4 - T8,Channel 5 - C4,Channel 6 - Cz,Channel 7 - Fz,Channel 8 - F4,Channel 9 - Fp2,Channel 10 - F8,Channel 11 - Fp1,Channel 12 - F7,Channel 13 - F3,Channel 14 - C3,Channel 15 - T7,Channel 16 - P7,Channel 17 - P3,Channel 18 - O1,Channel 19 - Pz
8.376834295,11.00354247,5.663329905,-2.678670473,2.541626801,-0.576442558,-12.05910603,-5.311059505,-5.414564858,-4.121826326,-2.595128418,6.083440781,1.291719695,4.777078429,11.8643308,9.972558283,6.215003436,5.351163062,-1.589051798
7.81213628,8.451167448,4.100598682,-1.498146089,6.631220407,-0.78969478,-10.20112492,-2.792587303,-5.499715182,-2.185407721,-9.413765881,-0.251279556,-4.462213679,0.785654196,7.119775134,5.13946755,1.771267977,2.337349386,-0.112934432
6.423557299,6.14772035,3.614412347,1.666137436,10.13587508,-0.329768697,-5.031289046,1.389419964,-3.254388082,1.3658928,-11.98963695,-2.897254656,-7.526501341,-1.273963876,3.275240788,0.870162964,-1.184409432,0.526150328,1.360576413
5.053681539,5.528674805,4.276724815,5.12264236,11.96378844,0.510139317,0.51227148,5.334617202,0.342887125,5.150195753,-10.267159,-2.363642435,-6.792635601,-0.95447527,1.2209094,-1.018174613,-1.635778633,0.427898634,2.836773951
4.292823196,6.785034714,5.38297637,7.044583226,11.70317701,1.179293017,3.543543416,7.130946516,3.374099378,7.437910173,-6.220931975,-0.562117072,-3.254514916,0.997029626,0.745209694,-0.392161549,-0.017151544,1.659747345,4.281153859
4.163240891,8.785954312,5.975272927,6.657829509,9.894346873,1.34026268,3.142259683,6.035748045,4.309279828,7.357871289,-2.256930365,0.787649167,0.794604793,3.27089019,0.867831764,1.273511668,2.195449818,3.207509716,5.516400566
4.2300444,9.970701404,5.494229772,4.595111526,7.71630054,1.125576539,0.669723089,2.836157228,2.954327399,5.403596862,0.165829708,1.156029995,3.208202234,4.823169906,0.565031421,2.200301081,3.56186999,4.137570229,6.283723651
4.024232336,9.530134452,4.120537909,2.258594851,6.278289359,0.974468263,-1.634201086,-0.819474601,0.359587892,2.903149856,0.795451522,0.963220555,3.071018387,5.328021456,-0.633209656,1.791422809,3.626182149,4.270618278,6.442748312
3.435453355,7.970892685,2.605001973,0.784463053,6.005719352,1.211422835,-2.510548567,-3.537963517,-2.099432831,0.975224723,-0.076442899,0.579899213,0.833119008,5.046736739,-2.514545832,1.088190917,3.053319238,4.299804124,6.140508209
2.777321904,6.645745439,1.74541944,0.425453755,6.538318822,1.747171743,-2.454247574,-4.888202586,-3.645576913,-0.138186404,-2.275498284,-0.344870524,-2.335663672,4.375959819,-4.474675218,1.819066047,2.914358854,5.220336974,5.777058782
2.501484123,6.652016948,1.890545748,0.727194402,7.163607879,2.165754425,-2.876419374,-5.270969475,-4.33313428,-0.882877869,-5.702834754,-2.544450798,-5.3186902,3.527336974,-5.907152709,4.824230966,3.740158747,7.471396491,5.749470352
2.813660648,7.988518673,2.793536545,1.187373926,7.407159066,2.114018645,-4.536909542,-5.248151495,-4.58014299,-1.655243775,-9.765965396,-6.116907767,-7.416501156,2.575249682,-6.410848515,9.170809166,5.111880499,10.45582585,6.149102163
3.506793131,9.629939511,3.867142462,1.741306251,7.317557082,1.638877245,-6.704249995,-5.012780128,-4.582450442,-2.276572951,-13.09409646,-9.866696041,-8.270502365,1.714343245,-5.786040024,12.72482733,6.08396228,12.85711067,6.655919253
4.135152351,10.42307536,4.619108901,2.670047852,7.275857638,1.162228743,-7.783005543,-4.430504646,-4.185440536,-2.17226798,-14.12217811,-11.79327816,-7.708633896,1.362144359,-3.994514976,13.75293717,6.037380285,13.56978264,6.744626653
4.374309887,10.05091548,4.955808726,4.105923314,7.56797194,1.106232022,-6.806240005,-3.478786525,-3.253213078,-1.042793148,-12.24728331,-10.50839379,-5.824145061,1.90783246,-1.231339992,12.26705751,5.216385962,12.55594686,6.076814187
4.271816588,9.279239984,5.172540607,5.679630101,8.132560357,1.499344548,-4.417216743,-2.531831118,-2.055985379,0.666723305,-8.56923115,-6.475131691,-3.213084865,3.287029549,1.948439427,10.01199906,4.490003506,10.94932743,4.78954893
4.195219698,9.305633803,5.681867758,6.694546338,8.697538852,1.923592279,-2.426818189,-2.128170071,-1.190435358,2.002997005,-5.417614774,-1.982477392,-0.996112282,4.796919501,4.658257057,9.086396233,4.550829004,10.27645858,3.446368834
4.531907974,10.76314361,6.696347889,6.695783944,9.137068916,1.872201817,-2.302675266,-2.413151601,-1.042701802,2.278093575,-4.83605228,0.275369031,-0.360376371,5.420605115,5.999015684,10.29284196,5.249834906,11.34635997,2.665278913
5.38395171,13.19032572,8.079963302,5.910149714,9.668352319,1.222509574,-3.895435973,-2.826290857,-1.307369923,1.682669512,-7.115848028,-0.974461567,-1.802635645,4.506024919,5.546047233,12.53002228,5.656713212,13.63859013,2.692949861
6.487105303,15.37004864,9.440621894,5.128060165,10.65925199,0.410231769,-5.509601154,-2.426893364,-1.087750595,1.156158329,-10.52482603,-4.703034762,-4.626336561,2.302670216,3.671550414,13.69184452,4.822040927,15.65581614,3.248905421
7.394032147,16.21892438,10.36836842,5.09296614,12.1974066,0.129680462,-5.268211315,-0.664918021,0.4116876,1.593784742,-12.4775587,-8.298429375,-7.170458129,-0.091449709,1.417425249,12.32198932,2.615629474,15.96816545,3.762154379
7.760153545,15.47944513,10.6426485,5.910480353,13.82981277,0.785062677,-2.619494271,2.053920993,3.163027041,3.07985094,-11.27496377,-9.336975041,-7.734365189,-1.391915212,-0.067259777,8.680774879,-0.067996737,14.14201575,3.815814763
7.513293623,13.67100429,10.27686119,6.985220996,14.76929642,2.141101244,1.26507754,4.548439678,6.216565822,4.832443551,-7.126635726,-7.1095033,-5.610853247,-0.94620698,-0.184613002,4.389710997,-1.936315167,10.84861097,3.447664759
6.803911193,11.40337897,9.394679283,7.539396266,14.46110381,3.47192226,4.489252588,5.71257862,8.377191034,5.918556311,-1.780490167,-2.866291339,-1.509029984,0.877525763,0.788694341,0.998617181,-2.273683222,7.116411441,3.06819447
5.812362403,8.695443236,8.051048148,7.263847672,13.05846904,4.103052965,5.942971308,5.370225043,9.135455832,6.107209001,2.814723461,1.243334773,2.931221258,2.997847541,1.92258275,-1.302373761,-1.487015846,3.390663429,3.068691838
4.58782717,4.925785351,6.145951615,6.541481303,11.38546662,3.916183864,6.060408851,4.425551338,9.084649045,6.09307414,5.711126716,3.627083121,6.177545675,4.371280102,2.24098565,-3.742598981,-0.782412524,-0.779585351,3.449620913
3.045513756,-0.506433181,3.511029191,6.058513618,10.3669817,3.4107712,6.254692884,4.160897192,9.456340654,6.871319953,7.179940424,4.038576608,7.659015091,4.625606622,1.314366266,-7.74868241,-1.224114812,-6.13444072,3.788581142
1.109882282,-7.350630506,0.121964537,6.149252062,10.35052998,3.272385759,7.589856871,5.229586951,11.12250059,8.79287483,7.990638021,3.29141033,7.874932335,4.145278125,-0.5195875,-13.45449348,-2.910993268,-12.67421975,3.588569667
-1.12178869,-14.22145376,-3.714122896,6.44502224,10.85415105,3.794227866,9.842755009,7.13537626,13.84038402,11.11707859,8.529148647,2.348827294,7.775230301,3.625509916,-2.393066589,-19.19090242,-4.899319987,-19.10757649,2.72589515
-3.328731909,-19.17231165,-7.353652969,6.130704827,10.94630728,4.614143387,11.7004856,8.586864112,16.31175669,12.45551569,8.522896194,1.608751982,7.948558802,3.504193645,-3.404346719,-22.42055772,-5.905016753,-23.33628921,1.620623601
-5.072931697,-20.77113935,-10.04425919,4.59421337,9.963931006,4.975819766,11.84589153,8.417033379,16.98628479,11.7449521,7.488024552,0.871277404,8.230065245,3.717110634,-3.063785037,-21.42907286,-5.222121073,-23.70934238,0.968262391
-5.996015958,-18.92862343,-11.2751066,1.932863291,8.014477465,4.309510061,9.981398334,6.349377873,15.00246663,8.96092496,5.358676304,-0.178622325,7.956594854,3.905952303,-1.475393884,-16.49033606,-3.164976839,-20.12920488,1.228191505
-5.985334684,-14.9021981,-11.03408533,-1.081500974,5.895136381,2.685026688,6.988916062,3.082946397,10.63802782,5.041806506,2.671743397,-1.528753203,6.588951363,3.827015894,0.772679602,-9.649632118,-0.753439643,-14.15976845,2.269402538
-5.213323282,-10.49176307,-9.790815878,-3.518792718,4.530517602,0.800064176,4.211977899,-0.251394662,5.08169995,1.179075376,0.172643132,-2.835678492,4.186071595,3.577437059,2.895389045,-3.345135981,1.045446425,-8.033854697,3.455773894
-4.032725917,-6.997843627,-8.19486219,-4.85259888,4.386983793,-0.472924898,2.545540202,-2.757235887,-0.18017978,-1.877457116,-1.73164013,-3.777703164,1.39810347,3.459647542,4.228134466,1.056756342,1.90772397,-3.297128437,4.105716313
-2.791384735,-4.630649372,-6.677486395,-5.144780054,5.28656381,-0.638264515,2.054254,-4.081283561,-3.927571806,-3.967427826,-3.141559011,-4.355612042,-0.949481132,3.642539476,4.462726001,3.761553746,2.168501451,-0.083091801,3.967996417
-1.672997749,-2.691523142,-5.22842202,-4.786876566,6.67751313,0.15814008,2.273567177,-4.291873926,-5.504626812,-5.161355921,-4.336059528,-4.833597505,-2.321009056,3.951142846,3.736776642,5.861587749,2.355740102,2.511776732,3.35360943
-0.655810583,-0.302165095,-3.511122161,-4.100230744,8.055323926,1.295495656,2.755936095,-3.624585996,-4.911800123,-5.403138059,-5.323355037,-5.401641207,-2.657149693,3.986811173,2.548842393,8.170554305,2.698724491,5.358863783,2.84674653
0.385532628,2.870528925,-1.241979669,-3.161270256,9.17148211,2.107202777,3.329930349,-2.394539902,-2.803978957,-4.585191112,-5.749167499,-5.922868243,-2.229033639,3.475645187,1.52120793,10.56375163,3.019347779,8.452806284,2.847084889
1.499656966,6.362371311,1.442099367,-1.95604407,9.931328704,2.254334921,3.947868766,-1.068628685,-0.350376963,-2.965527864,-5.262423809,-6.040970116,-1.365488748,2.536153537,1.102110903,12.27620795,3.035004867,10.95683669,3.303693452
2.527207504,9.224922059,3.91337966,-0.643927977,10.19629324,1.8233909,4.445349284,-0.237303362,1.180024947,-1.399960424,-3.966620461,-5.563422758,-0.299606385,1.624675332,1.350843634,12.76374853,2.739946275,12.02007974,3.815864651
3.132242044,10.62510359,5.363422086,0.377482284,9.77269116,1.157719066,4.575265205,-0.314167304,1.066721174,-0.971220934,-2.48521717,-4.75613556,0.790367509,1.194237933,1.926100483,12.29430447,2.491316035,11.60331413,3.972000466
3.007899454,10.32486337,5.300495783,0.702708973,8.638569144,0.600955509,4.307407565,-1.143214235,-0.346127232,-2.184817411,-1.53927863,-4.248965092,1.671839079,1.34796357,2.289846509,11.74302533,2.716642763,10.57786035,3.633524936
2.1326124,8.77906003,3.893098747,0.242530638,7.167499065,0.331689981,4.022151477,-1.929888239,-1.741047476,-4.417658975,-1.414498728,-4.597445545,2.056409453,1.774396497,2.010161609,11.80606717,3.509680077,10.0191356,2.9656297
0.883313901,6.856664976,1.913239058,-0.662796412,6.05114444,0.345856424,4.27724728,-1.731759681,-1.659716895,-6.217721065,-1.813807211,-5.854608803,1.754987577,2.018429753,0.990564925,12.36477873,4.48511187,10.32413168,2.257440562
-0.11915769,5.393100249,0.307215629,-1.46399863,5.877716074,0.526014641,5.26568159,-0.245400639,0.396507326,-6.363413717,-2.227381384,-7.501232818,0.866495135,1.866603031,-0.48832803,12.58698618,5.039306832,10.92974553,1.733301031
-0.373611476,4.825528805,-0.322843679,-1.784981168,6.667320234,0.714041067,6.470951688,1.745237046,3.426545826,-4.878595462,-2.449692496,-8.778252444,-0.179075466,1.535538308,-1.90614289,11.69133177,4.814797568,10.87639239,1.505014481
0.161447107,5.071932843,0.009131833,-1.655374234,7.771630407,0.759180555,6.940470294,2.741611251,5.485730715,-3.123920396,-2.722097133,-9.141651651,-0.796302059,1.514368872,-2.719870016,9.709080682,3.989855889,9.718135332,1.632353843
1.005117463,5.672157791,0.800464738,-1.416462824,8.286223755,0.56397373,6.060353651,1.578770439,5.061003456,-2.786010741,-3.341809627,-8.498565899,-0.539608413,2.187470347,-2.55961608,7.567974595,3.154913933,7.976118592,2.145790216
1.449251748,6.088548573,1.460440897,-1.402486987,7.699343547,0.139941143,4.203478231,-1.602871634,2.278540292,-4.513077073,-4.121864835,-7.112693631,0.673203463,3.530208196,-1.358330867,6.399553984,2.870847075,6.731833909,2.958734318
1.033743879,6.003659433,1.688816381,-1.673826458,6.275540933,-0.363828525,2.637188941,-5.256726733,-1.025685042,-7.305615613,-4.286300468,-5.354711125,2.544130132,5.103531815,0.590205107,6.637947375,3.253922895,6.711638237,3.773019599
-0.125520208,5.465810174,1.588160394,-2.007164679,4.857725726,-0.713229726,2.660675177,-7.374636261,-2.528271832,-9.21328268,-3.017546296,-3.55393591,4.571374435,6.33853787,2.665806668,7.665561895,3.902082733,7.663840509,4.157833064
-1.397097462,4.815983408,1.482563909,-2.113115642,4.230630244,-0.725078128,4.611027844,-6.834033915,-1.080960079,-8.836637815,-0.247726192,-2.030769166,6.287087115,6.890005125,4.093680303,8.310851992,4.20401863,8.578526798,3.844320303
-2.050207083,4.450767684,1.624240724,-1.870481373,4.545294257,-0.40650989,7.538445551,-4.155249684,2.429981225,-6.450343754,3.020861946,-1.155955802,7.41739103,6.806487537,4.257243511,7.795352625,3.782421571,8.563645717,3.032727826
-1.734112956,4.57298909,2.020440035,-1.386397591,5.257703771,0.01397068,9.837180971,-1.101565799,5.69369153,-3.83580189,5.250044887,-1.240750337,7.91182209,6.421184561,3.038606678,6.354276941,2.739992474,7.611542016,2.403164683
-0.682113919,5.088399041,2.487436415,-0.868977301,5.619144673,0.212889014,10.35083806,0.568395794,6.604763055,-2.934715004,5.420899487,-2.262770263,7.883002482,6.077673933,0.973866492,5.025129164,1.548749793,6.57904497,2.706583257
0.491376495,5.707005179,2.850935552,-0.456967018,5.312969266,-0.013142225,9.097366288,0.254312888,4.690806732,-4.379559238,3.78957613,-3.675386567,7.526768955,5.906964573,-0.947513552,4.78330865,0.69861895,6.39157585,4.174609049
1.231158916,6.16357684,3.11102234,-0.15371035,4.724501239,-0.591392175,7.090487695,-1.256640341,1.297957226,-7.050008941,1.713882919,-4.571681962,7.056900291,5.804053333,-1.799507462,5.735177846,0.384303232,7.171364889,6.212797026
1.387253465,6.389382526,3.440711663,0.115568508,4.63826149,-1.194787158,5.475263791,-2.568859072,-1.523258863,-8.974588864,0.653958941,-4.209982996,6.643222232,5.584006873,-1.265015798,7.024753944,0.449756863,8.074500116,7.6920877
1.231606418,6.513381953,4.033264458,0.421030672,5.617865558,-1.439694968,4.713452321,-2.781947298,-2.505293572,-8.828905304,1.117013053,-2.567030455,6.339483242,5.16634876,0.157746433,7.523941541,0.594768714,8.014161223,7.698717263
1.178514804,6.712304034,4.931893351,0.811587348,7.561398451,-1.134478945,4.434357106,-2.05283607,-1.88840333,-6.842564628,2.354384053,-0.478849775,6.027046107,4.636165366,1.463953847,6.743504089,0.65367472,6.665427243,6.202305897
1.460634605,7.050461788,5.97834503,1.351422223,9.760516103,-0.417204196,3.958288461,-1.258114858,-0.936103159,-4.45018632,3.001779006,0.810266363,5.433171839,4.147247375,1.787551488,5.23424834,0.723153458,4.870803468,4.111011299
2.012248311,7.449104815,6.913690788,2.11927266,11.3818503,0.306052929,2.955674435,-1.140474028,-0.775373309,-3.04996233,2.107612766,0.426545415,4.261332314,3.766709425,0.949904515,4.167971332,1.051692083,4.049165193,2.635658083
2.610031352,7.801434552,7.54442177,3.119704856,11.97826839,0.584424808,1.677779118,-1.687038643,-1.560978209,-2.916974665,-0.25991494,-1.561354592,2.396886843,3.406792777,-0.467236085,4.442959556,1.791745743,5.054971598,2.434060811
3.10150102,8.111050849,7.842592204,4.172523555,11.66208559,0.17506746,0.650150575,-2.214347411,-2.578041257,-3.125275742,-3.218758855,-4.178889632,0.077060615,2.915086462,-1.563056907,6.020702883,2.815500698,7.422113511,3.19645494
3.499695041,8.504118478,7.907996448,4.911659035,10.87761882,-0.815446876,0.203965444,-2.006551414,-3.049625969,-2.465834806,-5.791158806,-6.151015347,-2.09838561,2.258462402,-1.740201995,7.993817005,3.742286688,9.634893157,3.986998817
3.871963483,9.080528955,7.832136701,4.95434364,10.0210019,-1.973901502,0.298689327,-0.918220265,-2.8509818,-0.544406174,-7.47112143,-6.63431827,-3.367820913,1.644134226,-1.059819935,9.296712408,4.168404703,10.23334831,4.045755914
4.157237786,9.730422551,7.582298457,4.147834094,9.222910275,-2.782712109,0.73717329,0.550166078,-2.502984038,1.851963885,-8.22510453,-5.581547903,-3.152164828,1.448798984,-0.106900277,9.479803719,3.943905983,8.878356756,3.385420461
4.120293602,10.10370222,7.011998116,2.709032422,8.416011787,-2.88067562,1.468446459,1.702237457,-2.520640061,3.385594167,-8.090193295,-3.563751472,-1.378645344,1.963888167,0.476012854,8.953694528,3.304659969,6.541066658,2.701097753
3.525625263,9.813379092,6.009549244,1.138578217,7.552914898,-2.254121519,2.613530725,2.18296416,-2.780196142,3.242248266,-6.89420843,-1.289859482,1.394463658,3.118587508,0.401025343,8.556507125,2.761829043,4.701031807,2.69763796
2.400017,8.754542987,4.68463376,-0.034728484,6.744895715,-1.259030867,4.176459369,2.147684782,-2.529576594,1.770355989,-4.441708011,0.762053521,4.147268447,4.396539156,-0.197076334,8.830359737,2.80941265,4.23105702,3.430240861
1.14461388,7.293652384,3.442389364,-0.495108851,6.210061395,-0.450378085,5.772707313,1.980398183,-1.06306349,0.202473826,-0.985686039,2.368331145,5.814421009,5.059778427,-1.011269917,9.59255808,3.629853871,4.859550625,4.230811116
0.358205444,6.145167402,2.848244932,-0.213414054,6.112038931,-0.292850349,6.735508144,1.880475353,1.533761279,-0.275372446,2.545021283,3.351809099,5.767924667,4.585632779,-1.849736553,10.11993443,4.981368527,5.580336986,4.276512445
0.466671926,5.972664476,3.321634854,0.646036891,6.452940164,-0.902688434,6.599435228,1.714590039,4.244616631,0.643095607,4.916895805,3.453786071,4.131550413,3.046865106,-2.695189615,9.768234433,6.33655154,5.587829394,3.296589043
1.425490793,6.966356494,4.83166671,1.856744822,7.10077416,-1.9731234,5.552423603,1.245473576,5.751457784,2.261981169,5.360385056,2.479001728,1.750489279,1.158104288,-3.52358442,8.520575668,7.183189596,4.921173236,1.79711809
2.726053801,8.689941519,6.807464121,3.185160986,7.888556979,-2.944315511,4.400777797,0.485317656,5.342896424,3.492588886,4.113584776,0.594427852,-0.203106462,-0.095214277,-4.115177289,7.039460255,7.297855934,4.309975405,0.612436454
3.715393318,10.31655455,8.372482449,4.38101377,8.670109542,-3.33177405,3.987690038,-0.187415953,3.384011926,3.669477691,2.241964812,-1.546825487,-0.819457372,-0.047321344,-4.100896623,6.195178557,6.826646153,4.426368478,0.18893186
4.005938961,11.10781247,8.809290108,5.20616455,9.298237202,-3.015621936,4.505607011,-0.278781585,1.002521595,2.958812881,0.827736185,-3.083683583,0.058755984,1.213086518,-3.253400034,6.435479703,6.138903543,5.238380992,0.24339105
3.687962702,10.82319675,7.984158457,5.555317903,9.604474251,-2.301871486,5.288705617,0.417311348,-0.716519731,2.122715626,0.174926921,-3.508668338,1.721699774,2.869456776,-1.773046994,7.455665779,5.568798064,6.024081172,0.100864598
3.207051308,9.797553255,6.442733672,5.57710455,9.472648995,-1.706817284,5.306627432,1.623963966,-1.377030985,1.902036836,-0.307254948,-3.096007543,2.954057853,3.878877812,-0.280557151,8.382396628,5.223512854,5.996687631,-0.598870364
3.011865857,8.652595107,5.072821854,5.629359378,8.986087532,-1.600965516,4.00077542,2.775779114,-1.305486662,2.511471815,-1.437960871,-2.803068551,2.716027732,3.636729244,0.539641094,8.311039144,4.97400072,4.959460744,-1.482902769
3.230507031,7.851082262,4.519103331,6.012715032,8.504696989,-1.950276862,1.804341143,3.446714061,-1.061464664,3.578209594,-3.377714765,-3.617899431,0.783769846,2.36570934,0.394563693,6.816552141,4.605623572,3.413315077,-1.729111825
3.594153069,7.394855251,4.732251462,6.65124514,8.535673013,-2.331945654,-0.074121632,3.657221004,-0.921361522,4.485804785,-5.289283502,-5.769025444,-2.028566798,0.964616951,-0.424164463,4.126137633,3.996769638,2.050936255,-0.837539105
3.640240198,6.856949835,4.981557809,7.013009805,9.423086458,-2.216397665,-0.446163187,3.81366747,-0.772966689,4.813705741,-5.874052743,-8.383611948,-4.238054889,0.416448931,-1.275632163,0.907664525,3.192609874,1.118652477,0.788418452
3.038656973,5.709552187,4.360490503,6.426653766,11.06342228,-1.326325292,1.077391183,4.342510546,-0.431491181,4.562356438,-4.386286882,-9.91561101,-4.492173906,1.155015823,-1.658422736,-2.124896794,2.340080978,0.22749732,2.00364458
1.820004307,3.719713016,2.460536096,4.622223156,12.88170462,0.165068629,3.873894258,5.326304089,0.001507975,4.064408318,-1.319500501,-9.130668951,-2.362338435,2.810083325,-1.574908305,-4.523496092,1.562548409,-1.225707944,1.753902941
0.369059641,1.152157761,-0.261991295,2.078098668,14.12612523,1.720135393,6.756130584,6.431186861,0.124164257,3.709369759,1.797221608,-6.008244609,1.341288689,4.479577663,-1.498175799,-6.191495631,0.886993286,-3.420077495,-0.083800668
-0.796697579,-1.347190049,-2.715487453,-0.161804044,14.29186337,2.739809943,8.69823837,7.167406908,-0.400472767,3.695967805,3.364599376,-1.922611566,4.957186224,5.313372531,-1.989661393,-7.277070562,0.272601968,-5.840504067,-2.555823059
-1.319964958,-3.106936935,-3.873961585,-1.142803267,13.37562553,2.884032165,9.33156732,7.261239986,-1.443284526,3.95590802,2.734885327,1.083160561,6.875582879,4.99992016,-3.281622845,-8.006264514,-0.307868743,-7.629056444,-4.322549858
-1.197271196,-3.798360159,-3.472906053,-0.666036016,11.79076817,2.219482943,8.96015376,6.846844351,-2.37142897,4.254882036,0.56767414,1.509222317,6.443548018,3.853460212,-5.135274294,-8.561876343,-0.823698844,-8.257668536,-4.634764387
-0.769378072,-3.588936409,-2.201676422,0.555587177,10.03610533,1.132560261,8.219098876,6.345907332,-2.461540729,4.372954415,-1.679335359,-0.671355288,4.328278133,2.507557268,-7.034902238,-9.02924468,-1.219564512,-7.937605148,-3.813204132
-0.517600612,-2.994673369,-1.236839049,1.407941395,8.390493849,0.091912584,7.681532468,6.146090339,-1.451144318,4.242047286,-2.699338817,-3.976058217,2.103928734,1.488753506,-8.509476551,-9.377016158,-1.480454013,-7.411587744,-2.873216927
-0.778198062,-2.534974146,-1.431404455,1.18658203,6.854563967,-0.585952131,7.630713584,6.325435196,0.221381844,3.962237988,-2.050654253,-6.312718783,1.300395099,0.978937654,-9.313944746,-9.455600781,-1.645073164,-7.310416466,-2.651122123
-1.534099547,-2.414759951,-2.729085735,0.089819,5.334399058,-0.848509709,8.017510361,6.61375162,1.695779213,3.697389426,-0.224690746,-6.253308773,2.493802575,0.877449182,-9.381007145,-9.037376642,-1.73762974,-7.627293087,-3.18161539
-2.409386623,-2.434857741,-4.217652802,-0.984998044,3.861672417,-0.868417464,8.52402472,6.599855448,2.281975936,3.527433898,1.837633395,-3.877058681,5.00015651,1.024717592,-8.685754447,-7.92574182,-1.681315894,-7.753188869,-3.819203065
-2.884046307,-2.179009394,-4.779706713,-1.172467964,2.640166695,-0.906392189,8.692577752,6.028234637,1.917621977,3.369697499,3.347780436,-0.659431807,7.353722845,1.35250238,-7.228726724,-6.105060313,-1.295894491,-7.031409,-3.929918517
-2.613723682,-1.343776816,-3.876415306,-0.314775929,1.88910111,-1.158974456,8.130931257,4.985362375,1.159760613,3.042542902,3.996490839,1.498447569,8.249887289,1.842382406,-5.184479126,-3.838282297,-0.417085007,-5.353004593,-3.49270558
-1.660833499,0.01309523,-1.918373565,0.940235474,1.645760899,-1.660524674,6.754011009,3.861211939,0.742113303,2.438352129,3.911681261,1.458732244,7.338749896,2.381295944,-3.044216748,-1.61555306,0.943317183,-3.294817094,-3.064639317
-0.482749718,1.468662695,0.011147242,1.661160228,1.719525397,-2.274804579,4.912910902,3.114903661,1.041849457,1.667132933,3.421198958,-0.505484917,5.368200281,2.708515588,-1.526771218,0.057722107,2.539437922,-1.699207922,-3.165527988
0.327634409,2.467630181,0.852279466,1.321081139,1.839044627,-2.774076865,3.253025771,2.987906886,1.831414821,1.021540718,2.838915577,-2.986161635,3.617418114,2.558784103,-1.21702415,0.922752194,4.012067953,-1.057851153,-3.67992869
0.386009278,2.626267415,0.18415359,0.093003589,1.852366301,-2.967407023,2.318963527,3.337710437,2.450821662,0.738610438,2.357388279,-4.411869903,3.030484275,1.904939992,-2.161907987,1.105432991,5.113346601,-1.202740631,-3.868313777
-0.281939878,1.906710155,-1.635705276,-1.445523116,1.797401219,-2.812354196,2.163602426,3.698604108,2.234724076,0.717778728,2.000398543,-4.05332514,3.635268905,1.075846712,-3.760224918,1.016607496,5.85410101,-1.528559613,-3.025537797
-1.312823681,0.568846568,-3.829898853,-2.891167942,1.79136932,-2.443930766,2.284799572,3.54588386,0.889922582,0.444426613,1.589204017,-2.422178906,4.604851877,0.596889401,-5.100123668,1.057026972,6.436837143,-1.529158632,-1.217135067
-2.287771887,-1.029795063,-5.733608588,-4.350343531,1.86199785,-2.095619216,1.989818026,2.611712266,-1.391426157,-0.744835188,0.763343086,-0.858793145,4.863482033,0.824129812,-5.552674954,1.316349223,7.012480481,-1.199652505,0.588721013
-3.012037728,-2.622764668,-7.110345779,-6.246415198,1.892182663,-1.95505107,0.930022785,1.053993245,-4.089979358,-3.182094853,-0.869099257,-0.640550076,3.786268964,1.635900679,-5.20197931,1.480248963,7.462917038,-1.003802788,1.177014695
-3.592003088,-4.089985829,-8.088377249,-8.791670029,1.729281113,-2.046903831,-0.626267044,-0.639866691,-6.637169066,-6.512678204,-3.467555885,-2.214548247,1.530867506,2.438570841,-4.782753464,1.030316609,7.415548988,-1.477254083,0.027526697
-4.273636744,-5.38646071,-8.866875868,-11.61273448,1.341184708,-2.224110597,-2.019520866,-1.95809794,-8.639560043,-9.769637534,-6.734910686,-5.010505844,-1.152131034,2.525204242,-5.152209958,-0.381540045,6.517845899,-2.809046407,-2.23337665
-5.190345769,-6.45262346,-9.484262862,-13.88163928,0.852502643,-2.27460467,-2.736876254,-2.668071091,-9.959132767,-11.88949376,-9.922254805,-7.864723856,-3.409439913,1.55799199,-6.671739229,-2.636336034,4.775155213,-4.712542362,-4.260713661
-6.225246455,-7.205280263,-9.826694744,-14.86457776,0.416921331,-2.066384648,-2.795425252,-2.89637746,-10.65729494,-12.33611327,-12.11850053,-9.701960947,-4.695808382,-0.164255147,-8.941878225,-5.142623619,2.673526406,-6.630366947,-4.96509768
-7.08366415,-7.607509015,-9.811081706,-14.44102996,0.056372711,-1.625844293,-2.634316128,-2.92545339,-10.86429222,-11.3850125,-12.67301475,-10.03008381,-4.870210105,-1.8529402,-11.06776953,-7.141911426,0.954342631,-8.064801192,-4.253656268
-7.495772769,-7.725704206,-9.526003361,-13.17098763,-0.354079635,-1.098303826,-2.622369355,-2.872326171,-10.64563668,-9.853036686,-11.49060508,-9.015287003,-4.036509521,-2.700804389,-12.2402115,-8.126620843,0.176462886,-8.783336713,-2.966097242
-7.377373584,-7.691267395,-9.177235274,-11.86505558,-0.91594337,-0.63308919,-2.648490601,-2.524836133,-9.929426438,-8.476366585,-9.024473479,-7.219782243,-2.37255168,-2.36029748,-12.20111151,-8.08896666,0.380376,-8.809071942,-2.111339509
-6.838772504,-7.585741143,-8.888732379,-11.01375515,-1.513152747,-0.291105888,-2.199385557,-1.499054728,-8.540277915,-7.415503164,-6.004179929,-5.259854459,-0.1261067,-1.11194873,-11.27787131,-7.436796867,1.105876569,-8.29238826,-2.074472256
-6.078186328,-7.361743342,-8.561131569,-10.52527492,-1.816798933,-0.044660067,-0.880985782,0.380595023,-6.342678155,-6.269203528,-3.099817923,-3.590645531,2.272834236,0.372887109,-10.01388521,-6.651117182,1.750181675,-7.412146322,-2.442576545
-5.286202658,-6.898326448,-7.948244459,-9.945719558,-1.548060897,0.146295545,1.09179354,2.782269707,-3.428396697,-4.574736245,-0.71897765,-2.448460432,4.197579448,1.491998256,-8.719163189,-5.945515265,1.993550655,-6.361558301,-2.530880543
-4.641486093,-6.166805829,-6.912575858,-8.940014462,-0.800374537,0.263792516,2.920596801,4.921539568,-0.227473342,-2.377480972,1.010390789,-1.859772389,5.057228854,2.074510861,-7.294629169,-5.17922301,1.972151608,-5.358760709,-2.08435593
-4.350804608,-5.359204108,-5.640760894,-7.623734916,-0.110264594,0.238345696,3.801134739,5.982041307,2.565103829,-0.387130597,2.15916787,-1.647114054,4.680877931,2.415132988,-5.44206815,-4.075573084,2.082429812,-4.603531242,-1.508940701
-4.615966725,-4.830355246,-4.603867972,-6.489650589,-0.134944133,0.026186328,3.578458824,5.623176373,4.257051976,0.441034265,2.928131277,-1.461091444,3.556147086,2.989926846,-3.061267256,-2.55672268,2.594022068,-4.18187871,-1.439107113
-5.480785131,-4.849785993,-4.245478293,-6.014029113,-1.129814244,-0.319862001,2.900193133,4.211339707,4.498410508,-0.395110869,3.612438325,-0.909953823,2.664736647,4.075784409,-0.497143678,-0.911638517,3.394444359,-4.000496949,-2.059727898
-6.664687766,-5.338920814,-4.615377266,-6.269194422,-2.636781437,-0.661334033,2.703072833,2.606199683,3.495393346,-2.49274115,4.534574345,0.219077088,2.937618285,5.538801304,1.572673483,0.353857188,4.072583193,-3.825031267,-2.825547402
-7.570913628,-5.823376547,-5.242973484,-6.835399504,-3.682994051,-0.868458522,3.446898476,1.654920756,1.94663677,-4.694126536,5.894186381,1.774821239,4.658245367,6.916988799,2.536328309,0.87700385,4.266162277,-3.41034404,-2.865638672
-7.559592498,-5.691476283,-5.388439541,-7.058751489,-3.406573259,-0.920597166,4.736321124,1.741389839,0.701462419,-5.755059605,7.585498234,3.251705406,7.221896009,7.713263518,2.239677093,0.718498756,3.98035376,-2.636554606,-1.742510098
-6.354514591,-4.612706644,-4.531282555,-6.457333664,-1.670675706,-0.924722742,5.63787367,2.662799188,0.30760756,-5.080463171,9.118645966,4.030581028,9.433999809,7.684180294,1.082541505,0.321688745,3.606253142,-1.570968724,0.096298359
-4.293730305,-2.822171674,-2.765306445,-5.008588665,0.800557482,-1.032571438,5.402862205,3.845148911,0.696476599,-3.04543116,9.754423466,3.70357193,10.1635323,6.937573533,-0.255599217,0.158601463,3.61005172,-0.44396261,1.588146475
-2.197719655,-1.048106278,-0.813175657,-3.165844706,2.887258015,-1.324184104,3.978697648,4.686526192,1.195237439,-0.725298702,8.828286177,2.254609749,8.934486082,5.801492805,-1.271553527,0.329216664,4.130845848,0.421331304,1.846598806
-0.895913021,-0.106968515,0.373434068,-1.628133798,3.810063615,-1.753106805,1.916465728,4.797730021,0.885022449,0.745789762,6.101392641,-0.023706766,6.105474184,4.583004929,-1.960847577,0.437140922,4.804310579,0.69581414,0.825233576
-0.722044473,-0.429041556,0.179557254,-1.002099107,3.602332905,-2.192992679,-0.161110656,4.065192157,-0.868036261,0.764314465,1.941724162,-2.779700371,2.586071793,3.39268226,-2.785511251,-0.136713997,4.960314062,0.15415687,-0.692128695
-1.337212707,-1.825474641,-1.304408882,-1.51476502,2.989628726,-2.538370815,-1.998791725,2.616581668,-3.99445873,-0.531805942,-2.769415653,-5.786569273,-0.66709071,2.142470668,-4.309744602,-1.75063822,4.060423385,-1.193883544,-1.756629699
-2.010645626,-3.632797017,-3.344436149,-2.899470135,2.798487322,-2.772235879,-3.673095392,0.782596827,-7.66548603,-2.47580628,-6.961080605,-8.902625059,-3.047377636,0.692897678,-6.751356311,-4.171202214,2.06533082,-3.0158996,-2.013468282
-2.151540694,-5.111722361,-5.008240928,-4.517203881,3.354804721,-2.952484393,-5.204193126,-0.956602429,-10.66761101,-4.304200529,-9.772621721,-11.87409861,-4.408571568,-0.972288114,-9.753703272,-6.652535303,-0.518379209,-4.721857426,-1.927686894
-1.703830697,-5.827166512,-5.707135646,-5.686045836,4.303141144,-3.146437944,-6.295269697,-2.122382789,-12.03058662,-5.535352883,-10.85553768,-14.21858564,-4.933277543,-2.668026711,-12.53552579,-8.375978015,-2.924554616,-5.725252421,-2.306668409
-1.130870035,-5.790693289,-5.499770271,-6.072551738,4.928945923,-3.383347262,-6.53461736,-2.492726249,-11.55954073,-6.122805358,-10.45745677,-15.37766771,-4.925753281,-4.069001886,-14.32373553,-8.929724814,-4.530821182,-5.781991682,-3.535592111
-1.033010604,-5.337179532,-4.987682306,-5.912507307,4.690841966,-3.663309273,-5.887784739,-2.306791416,-9.942418134,-6.370189686,-9.258459843,-15.08163081,-4.659117288,-4.856377767,-14.78509893,-8.486628315,-5.111282558,-5.165484825,-5.168154518
-1.705513824,-4.875349832,-4.892064943,-5.874139837,3.559245269,-3.993939636,-4.944553858,-2.201389336,-8.337416747,-6.703414233,-8.027396278,-13.63892432,-4.300073861,-4.854726898,-14.17425841,-7.579214307,-4.815707583,-4.497700178,-6.207446092
-2.956956166,-4.683446683,-5.588368183,-6.587498023,1.963589922,-4.394816905,-4.558400101,-2.817602091,-7.669524847,-7.423552857,-7.250970403,-11.86615,-3.878891878,-4.093837627,-13.10870905,-6.677610041,-3.962334199,-4.302202502,-5.84397638
-4.28008791,-4.83043333,-6.881140109,-8.124568103,0.469562912,-4.848670513,-5.101116033,-4.299699221,-8.0713724,-8.539697791,-6.924924112,-10.63700532,-3.300662716,-2.793241387,-12.13621573,-5.903471255,-2.839546942,-4.592450776,-4.062106395
-5.198274508,-5.195622032,-8.136568458,-9.815959055,-0.527187157,-5.248736618,-6.002729045,-6.070638761,-8.832522107,-9.739740714,-6.637428521,-10.34566456,-2.431642347,-1.305933153,-11.40005518,-5.068703796,-1.649146826,-4.829098336,-1.656374397
-5.514454293,-5.525942294,-8.667746139,-10.60060865,-0.896915601,-5.417689545,-6.089589525,-7.122531969,-8.894970357,-10.50881828,-5.9132545,-10.68076059,-1.258583464,-0.047010222,-10.63134634,-3.945492089,-0.566121379,-4.314472326,0.320300689
-5.317420376,-5.509063817,-8.126409385,-9.720263459,-0.69109329,-5.217893237,-4.550563614,-6.677980562,-7.564959601,-10.35052544,-4.603945823,-10.88780521,-0.02280022,0.600119773,-9.456593645,-2.497151737,0.216956705,-2.735762248,1.22960064
-4.815762293,-4.879360362,-6.673271656,-7.27773363,-0.04373165,-4.67940937,-1.747624596,-4.760198209,-4.966464961,-9.020906493,-3.04308096,-10.3250625,0.816373122,0.412785962,-7.775961704,-0.872066099,0.557842451,-0.425560056,1.152373521
-4.182967911,-3.553749248,-4.85253691,-4.234370597,0.832073736,-4.030898231,0.871568028,-2.238459626,-1.952708439,-6.676907988,-1.824926053,-8.893161015,0.84048271,-0.536710298,-5.916838929,0.791711396,0.504356426,1.87389373,0.667396708
-3.531492781,-1.7344867,-3.279264933,-1.822147174,1.605758197,-3.580324883,1.781580622,-0.296951308,0.42032611,-3.878309583,-1.343864947,-7.029449235,0.01164498,-1.827277899,-4.439780358,2.515031957,0.357507091,3.542132583,0.352562827
-2.978604712,0.109628434,-2.345102355,-0.791254023,1.88729354,-3.515232339,0.531374829,0.288124577,1.463845072,-1.44026177,-1.445837584,-5.31441219,-1.176484832,-2.803621579,-3.742546963,4.389182826,0.54028225,4.451751647,0.414154934
-2.67941262,1.414689308,-2.105956297,-1.043047458,1.432348064,-3.771297905,-1.903109382,-0.455400338,1.098545372,-0.177142423,-1.498293689,-4.043730917,-1.921646575,-2.862664794,-3.767512518,6.304988674,1.312860213,4.866403007,0.676337279
-2.757277397,1.76999866,-2.375639629,-1.891161749,0.369591534,-4.077270502,-3.867600941,-1.866709634,-0.302888674,-0.599471202,-0.876669799,-3.12227009,-1.621973712,-1.785893341,-4.042392748,7.773238446,2.532458979,4.985735907,0.847733318
-3.189696533,1.101943623,-2.91482894,-2.692945254,-0.759046782,-4.149629038,-4.265528189,-3.180100864,-2.23350463,-2.64744364,0.484245396,-2.338557796,-0.327362339,0.083814674,-4.028968842,8.085976591,3.66904118,4.599418916,0.794534187
-3.773042962,-0.310250939,-3.565601585,-3.313035386,-1.245242153,-3.891425037,-3.27169519,-3.959842122,-4.228608944,-5.57984045,1.925286135,-1.737511621,1.221705432,1.964972712,-3.516323818,6.79051281,4.120860649,3.236243364,0.610588121
-4.225016631,-1.977609052,-4.254565154,-4.056245615,-0.623683488,-3.447401235,-1.983287481,-4.149414604,-5.820900807,-8.146418684,2.47005382,-1.718446621,2.044056433,3.027982708,-2.760274818,4.14106082,3.639788029,0.736228115,0.484321301
-4.353519204,-3.399809211,-4.906176274,-5.185775115,1.028977111,-3.084038817,-1.386256179,-3.829507248,-6.471417315,-9.085948796,1.542424989,-2.724913243,1.563616182,2.839550225,-2.266677416,1.133871988,2.559118016,-2.270139062,0.52127431
-4.154214776,-4.212682695,-5.377172194,-6.508552696,3.116652748,-2.999709295,-1.571171581,-3.027379995,-5.725449901,-7.795762198,-0.542121946,-4.761453169,-0.005874766,1.593500009,-2.38916985,-0.991741385,1.62632688,-4.499373959,0.674299356
-3.762843812,-4.252440538,-5.492543287,-7.440784029,4.850670937,-3.212857135,-1.846452465,-1.805124749,-3.597580336,-4.817916869,-2.709557164,-7.15654266,-1.809246926,-0.014212718,-3.048832862,-1.488344403,1.519919024,-4.804853879,0.807836705
-3.321201379,-3.571373209,-5.164513223,-7.521771278,5.653721617,-3.595815448,-1.549763184,-0.503044245,-0.870092743,-1.765190804,-3.818275236,-8.827816402,-2.907397731,-1.183632664,-3.781553502,-0.553103528,2.37439783,-3.059743215,0.812112149
-2.888629985,-2.434974486,-4.493904459,-6.916408433,5.385559305,-3.99628263,-0.732958408,0.212957501,1.078181329,-0.574733242,-3.411146325,-8.918072605,-2.827450994,-1.431151424,-4.064941698,0.845459699,3.658370744,-0.398109092,0.673712447
-2.473426149,-1.274058307,-3.756942444,-6.422511654,4.2948731,-4.32930608,-0.059659242,-0.295271596,0.982340436,-2.419991574,-1.981263536,-7.365821389,-1.730762025,-0.785595493,-3.671599253,1.655512751,4.514004216,1.474809281,0.475350757
-2.128475529,-0.541641514,-3.266856918,-6.913422051,2.802936185,-4.574082415,-0.03993165,-2.087875115,-1.462171053,-6.929561019,-0.576690786,-4.994117566,-0.151895539,0.321048685,-2.792302388,1.447638969,4.334340153,1.453005625,0.354685452
-1.983656582,-0.488759293,-3.197788307,-8.644466928,1.304714575,-4.712626011,-0.387326004,-4.386487125,-5.245413993,-12.2695278,-0.066278624,-3.032312086,1.407471163,1.350614495,-1.859089577,0.631759992,3.174295696,-0.193688092,0.452203662
-2.150134803,-0.98205452,-3.489703294,-10.99591654,0.092542538,-4.698955904,-0.187361522,-5.939155199,-8.539746526,-16.12869706,-0.614570845,-2.377066237,2.685809039,1.934779171,-1.218484245,0.058436196,1.704291185,-2.043270139,0.850333214
-2.572083997,-1.524054005,-3.894726433,-12.87931461,-0.631276804,-4.501235942,1.211440383,-5.839623301,-9.798209334,-17.02937225,-1.705007881,-3.067252404,3.565960566,1.984967505,-0.893104375,0.346923897,0.746008484,-2.582066736,1.505833008
-2.980470671,-1.529804632,-4.126663711,-13.48901475,-0.748020082,-4.167592049,3.407770009,-4.194891972,-8.722363424,-15.12483127,-2.602601529,-4.287980497,3.876661214,1.634937152,-0.578829789,1.469283741,0.732299575,-1.28567917,2.213613117
-3.032867437,-0.716602895,-4.013190156,-12.80272188,-0.26078016,-3.827319022,5.065962744,-2.080750638,-6.411917158,-11.96817386,-2.83810611,-4.867656518,3.377080644,1.116919376,0.1523439,2.882793387,1.478444053,1.096542722,2.660360486
-2.5556225,0.663281841,-3.564691823,-11.45927943,0.677138558,-3.598657826,4.954994659,-0.763361265,-4.579234457,-9.440334009,-2.360804948,-3.940609064,2.00034379,0.666344738,1.596122606,4.04551362,2.406107769,3.219710979,2.5804442
-1.692672426,1.943720941,-2.941218883,-10.16890032,1.816453814,-3.477316148,3.051913178,-0.76821546,-4.385679894,-8.5963101,-1.348998014,-1.39301486,0.128574117,0.472942795,3.755080951,4.851380341,3.016487918,4.189071132,1.934647959
-0.821517987,2.470037623,-2.359654419,-9.183072324,2.940132947,-3.321037526,0.715803832,-1.530727104,-5.719274446,-9.201296732,0.03867321,2.114497961,-1.428558874,0.638913065,6.329910603,5.621706332,3.234116984,4.130122999,0.979770209
-0.284858284,2.041803336,-1.99668905,-8.255820817,3.962940929,-2.97223177,-0.303566164,-1.912035193,-7.389742459,-10.18260103,1.695980737,5.496693519,-1.85887024,1.122653356,8.829870417,6.692333636,3.37011283,3.888451968,0.152654043
-0.145767002,1.054185822,-1.918956632,-7.067223538,4.902347182,-2.430604219,0.749934411,-1.167160013,-8.043811078,-10.55138295,3.383681308,7.738557598,-0.917872702,1.707838128,10.73764614,7.990594944,3.772984519,4.204476423,-0.171152863
-0.162377322,0.231849492,-2.049026661,-5.672251953,5.736184498,-1.921680085,3.001802433,0.413532978,-7.116324051,-10.06740499,4.58228447,8.284873698,0.79948126,2.062350602,11.67494367,8.999424175,4.483141535,5.106591621,0.121342208
0.000242117,0.147970642,-2.177595396,-4.541133784,6.286882954,-1.777139047,4.588377962,1.699572847,-5.17328554,-9.215240679,4.62997582,7.17433905,2.148627231,1.896149968,11.52509409,9.156946604,5.183718628,6.007059218,0.859857929
0.49649515,0.871328846,-2.040188453,-4.153679328,6.276743903,-2.199083707,4.046543365,1.584983773,-3.488169912,-8.647974946,3.121513544,4.910942632,2.129623222,1.133818479,10.4653226,8.342944449,5.473157081,6.330370077,1.748107062
1.183736563,1.971901318,-1.455832879,-4.530523613,5.55716565,-3.088592401,1.32809858,-0.167578508,-3.219263596,-8.637272407,0.267447618,2.180887892,0.508277532,-0.022284649,8.875767443,7.00803697,5.205924392,6.046267657,2.556986596
1.742602894,2.839050561,-0.470382839,-5.146723643,4.341016992,-4.079395542,-2.313743161,-2.742146017,-4.747068147,-8.961136649,-3.103666357,-0.427409637,-2.067937412,-1.197213809,7.152094457,5.800317004,4.595982671,5.613552926,3.199140164
1.918489815,3.052544151,0.596838869,-5.325665504,3.221340602,-4.757654974,-5.343337149,-4.832242092,-7.520729391,-9.21440783,-5.947077047,-2.571680382,-4.515081412,-2.050574608,5.52515653,4.988633291,3.995452907,5.420855237,3.654577859
1.685031463,2.555831292,1.278477011,-4.773709246,2.901226272,-4.902994401,-6.939918231,-5.468959816,-10.38965958,-9.168777594,-7.532851207,-4.136359859,-5.9728427,-2.440228715,4.011182045,4.187389341,3.556307952,5.294954288,3.860769661
1.220054978,1.577745845,1.225170177,-3.786419506,3.785735176,-4.577582483,-7.202616547,-4.502587264,-12.15462465,-8.845658892,-7.738990308,-5.116715053,-6.219997962,-2.436272719,2.534163226,2.662654204,3.094045936,4.59094993,3.707130659
0.752689837,0.445818653,0.459469653,-2.951215493,5.712124083,-4.021996847,-6.598839889,-2.489139721,-12.06582348,-8.315500971,-6.948060506,-5.530618621,-5.62429495,-2.2035819,1.124364626,0.015216428,2.295819954,2.832961449,3.156974559
0.431772804,-0.533429359,-0.568177973,-2.620575521,8.010538562,-3.469704048,-5.361066985,-0.222902218,-10.11184263,-7.529854495,-5.701444091,-5.434654702,-4.770612547,-1.870623225,0.019086822,-3.306241888,1.101036737,0.337387404,2.372993095
0.309392752,-1.08334607,-1.200641504,-2.62843636,9.856526539,-3.034253955,-3.4580105,1.655110841,-7.030103689,-6.43173134,-4.406728833,-5.002895453,-4.09814482,-1.489119671,-0.441373697,-6.112368849,-0.09281986,-1.78228847,1.692959618
0.401994731,-0.954001592,-0.962268865,-2.494012997,10.68085027,-2.728832775,-1.069240387,2.760489948,-4.005041051,-5.242648234,-3.264532777,-4.53803577,-3.767917035,-1.082320151,-0.055938076,-7.176598161,-0.618790784,-2.314788682,1.430423462
0.722241529,-0.010443295,0.132569477,-1.912428754,10.38808123,-2.546297535,1.094550493,2.913180788,-2.102461113,-4.557900125,-2.339149559,-4.321151237,-3.726588114,-0.687877039,1.058412779,-6.034455908,-0.010851327,-0.824070168,1.647465837
1.232388239,1.618156634,1.567188394,-1.073817313,9.296232587,-2.486818893,2.150797858,2.169826164,-1.665746755,-5.001903515,-1.592511052,-4.362655139,-3.788473687,-0.31898829,2.518375722,-3.287621693,1.611142174,2.007876331,2.097780526
1.784456994,3.484022429,2.632224844,-0.512913107,7.901395441,-2.503107649,1.868369185,0.964297999,-2.048455024,-6.632918377,-0.825199799,-4.264733086,-3.64134065,0.120951474,3.931938637,-0.194455487,3.561687773,4.846896172,2.407496325
2.15356363,4.985083848,2.86134246,-0.621620609,6.64564153,-2.448179432,1.132853409,0.107696387,-1.969646613,-8.630529159,0.333921757,-3.388937305,-2.867336921,0.846534089,5.149016896,2.132201462,5.015958312,6.601767157,2.35669628
2.18323604,5.688734467,2.306437413,-1.267483159,5.794818001,-2.131860373,1.418703269,0.413611963,-0.394161146,-9.674555532,2.219640172,-1.305883506,-1.128124179,2.039709303,6.28409666,3.323169647,5.518440221,7.043019431,2.031125953
1.928152656,5.58507944,1.47478619,-1.871839267,5.413785569,-1.486278936,3.525857904,2.068160091,2.606512072,-8.866155691,4.749194816,1.763347069,1.502012292,3.615381471,7.487650391,3.747772348,5.193156873,6.711578493,1.721914985
1.643714077,5.056337026,0.981297514,-1.893365503,5.378301057,-0.705934754,6.631424379,4.23310259,5.678248902,-6.512071886,7.177135449,4.886019537,4.308889004,5.108390929,8.681103242,4.000504924,4.530369111,6.295246552,1.669066731
1.591421856,4.56504977,1.155555061,-1.300502993,5.408830901,-0.205219968,8.605854486,5.347454163,6.953894783,-4.088891417,8.315433894,6.883647882,6.117724573,5.846920041,9.526483281,4.355151241,3.969705562,6.062659003,1.876023054
1.806495151,4.301308575,1.85713292,-0.620767445,5.169201518,-0.370215861,7.532452104,4.097057353,5.327185215,-3.30015044,7.226184729,7.070703357,5.920588387,5.363669759,9.70192488,4.627383227,3.638077347,5.814765706,2.147441174
2.037673815,4.073148328,2.595333482,-0.519439591,4.449416371,-1.266684801,3.290238713,0.426997968,1.330295803,-4.877426882,3.961442363,5.746295137,3.601827014,3.772546657,9.257368441,4.49137697,3.423088665,5.294376896,2.290056257
1.937830798,3.52145553,2.843316328,-1.262517076,3.350857085,-2.534170453,-2.111818064,-4.190148129,-3.081698017,-8.034251669,-0.231720223,4.036474473,0.225729414,1.806956822,8.701426725,3.893186962,3.24077659,4.575107988,2.266154388
1.359352306,2.460666145,2.326628914,-2.51119888,2.320049392,-3.570547608,-5.806788378,-7.536594265,-5.756091345,-11.00941395,-3.505543316,3.142466828,-2.419863598,0.435414088,8.661755463,3.140391135,3.187302019,4.009880233,2.144738114
0.49506861,1.038419867,1.114903951,-3.60738606,1.938772585,-3.886385933,-6.000204576,-8.002194819,-5.719994966,-12.29552334,-4.480332708,3.512909729,-2.813908422,0.286912948,9.333849948,2.568747235,3.400735928,3.78296158,1.907386271
-0.27582734,-0.425010883,-0.501045386,-4.099482463,2.559277674,-3.373459042,-3.069993294,-5.566042109,-3.710965109,-11.62316042,-3.065894182,4.550359355,-0.601414116,1.279081974,10.17032774,2.101014558,3.770161442,3.531545891,1.330963882
-0.715386096,-1.757573527,-2.223425741,-4.07446789,4.030583425,-2.304171253,0.958118168,-1.720582095,-1.496336057,-9.989421416,-0.454008969,5.08051403,3.199081219,2.705718173,10.13221877,1.14724465,3.817001749,2.477907798,0.118802378
-0.934192871,-3.097720103,-3.891941973,-4.043729324,5.741811405,-1.096601842,4.02177675,1.564979476,-0.53802528,-8.790281759,1.705265167,4.234920623,6.814611893,3.705884286,8.394534456,-0.981339414,2.946516313,0.051003341,-1.784529168
-1.272350325,-4.715795061,-5.472134894,-4.500656147,6.993461373,-0.054619567,5.359040597,3.058599068,-1.031053481,-8.793625304,2.342087171,2.078636039,8.737107981,3.768667441,5.007878947,-4.432289628,0.924225425,-3.505072704,-3.969091356
-1.938147414,-6.633903912,-6.924006772,-5.511324851,7.451836633,0.722481985,5.577032978,2.817720528,-1.992786898,-9.730721777,1.498379096,-0.483300219,8.478584839,2.936022151,1.000113035,-8.477062038,-1.8172927,-7.091393143,-5.675513841
-2.728373951,-8.401764839,-8.074233903,-6.636771515,7.354875575,1.244217036,5.634101439,1.819074544,-2.212929251,-10.70394241,0.058513232,-2.416564656,6.639405637,1.629521056,-2.200087518,-11.81362196,-4.346402208,-9.392686467,-6.235872263
-3.115775773,-9.287890496,-8.613981938,-7.207234243,7.306353503,1.498408456,5.825159659,1.106514363,-1.218944015,-10.94264292,-1.003222404,-3.300864059,4.369917751,0.31390815,-3.624233526,-13.3402418,-5.802617152,-9.733328383,-5.535687621
-2.680349872,-8.793164135,-8.257581809,-6.723743159,7.800850365,1.439848144,5.707644722,1.155125653,0.504380627,-10.25249574,-1.239858757,-3.519670405,2.674311974,-0.716896215,-3.298140461,-12.83984122,-5.946985109,-8.488864996,-4.135344134
-1.538285882,-7.085146099,-6.975793957,-5.12600018,8.827815945,1.096890339,4.89737314,1.820267633,2.096399736,-8.897007604,-0.812520729,-3.78441096,1.993813064,-1.324900961,-2.090642537,-11.05552682,-5.260599625,-6.736666617,-2.929815013
-0.376459747,-4.966791889,-5.135569748,-2.809504719,9.846612497,0.645177606,3.787721847,2.68926424,3.074413602,-7.202290278,-0.132168371,-4.434432304,2.197770235,-1.420313088,-1.038537097,-9.096179016,-4.515208123,-5.432192598,-2.577262333
0.001441668,-3.346279345,-3.399701911,-0.438446632,10.14897,0.313573861,3.34145132,3.389900561,3.563976192,-5.360536979,0.511514848,-5.125083613,2.808141538,-0.966472361,-0.679988898,-7.625944658,-4.168680668,-4.755571332,-3.102991496
-0.699533893,-2.586081197,-2.377047809,1.334839454,9.34430352,0.165152215,4.074146011,3.617591735,3.88014551,-3.587349967,1.009231951,-5.166079426,3.223353928,-0.137069981,-0.864882197,-6.45251015,-4.074474589,-4.103793125,-3.943849563
-1.962917427,-2.235200197,-2.201462264,2.149705966,7.627232302,-0.037611146,5.246138575,3.042035632,3.98387861,-2.329071557,1.238938266,-4.201860397,2.869603652,0.563592075,-1.090545223,-4.808016189,-3.719382783,-2.671793512,-4.362040664
-2.754704594,-1.370642401,-2.328803737,2.130922559,5.658916619,-0.700946023,5.203797408,1.403360527,3.448465019,-2.116255275,0.952618572,-2.62206897,1.366795977,0.452053764,-0.998365372,-2.071366583,-2.75340971,-0.122422794,-3.902954142
-2.230659523,0.693959111,-1.764957385,1.887262853,4.169035302,-2.045571567,2.769120548,-1.150548856,2.035560707,-3.048356272,-0.030512416,-1.314537837,-1.23472262,-0.895803009,-0.596010084,1.654567684,-1.337575403,3.165060441,-2.590629549
-0.344664104,3.8607152,0.325535165,2.229745886,3.556833576,-3.807748236,-1.486160642,-3.817621923,0.308701151,-4.38881192,-1.469848838,-0.938608306,-4.273546026,-3.20989112,-0.069502388,5.562340851,-0.012187596,6.393865105,-0.798827122
2.090140692,7.266296334,3.97860517,3.672711624,3.732404361,-5.284779448,-5.305078991,-5.387547811,-0.4350006,-4.811854474,-2.591865793,-1.325453043,-6.592307806,-5.486315872,0.566079154,8.720117096,0.780507513,8.894227631,1.021909033
3.92878068,9.842498534,8.212626672,5.992010593,4.252983751,-5.75800204,-6.288016812,-4.98997833,0.935915132,-3.31963738,-2.483635019,-1.538014844,-7.052210202,-6.492110397,1.597662877,10.73175845,1.080663227,10.48219123,2.535236174
4.423614499,10.99671462,11.47184354,8.19235243,4.625903543,-5.001829062,-3.744489927,-2.828992582,4.314354332,-0.169796461,-0.803018577,-0.598623366,-5.227741635,-5.539227236,3.368948674,11.94431433,1.351878525,11.42071558,3.550535344
3.645575286,10.92716366,12.52746449,9.028535562,4.585173013,-3.478598212,0.67388876,-0.246054791,8.06378485,3.027809341,1.742961682,1.656313153,-1.824583274,-2.992854788,5.861447157,13.04353205,2.027875351,12.10300011,3.985753227
2.343052927,10.38542672,11.26501629,7.816847929,4.207480856,-2.042156074,4.13110643,1.089877559,9.922044278,4.306637861,3.61641289,4.262510136,1.543655867,-0.12215161,8.480028442,14.37164077,3.067941097,12.74084854,3.876095236
1.395986561,10.10767832,8.793256811,4.976526522,3.840764878,-1.359523562,4.653246465,0.345679554,8.536423165,2.776270135,3.32376926,5.628232638,3.177167772,1.63723582,10.26387909,15.52490414,3.920379847,13.252896,3.424443431
1.273787515,10.34361478,6.743082128,1.851758704,3.902259243,-1.488637051,2.441241882,-1.841488777,4.48251141,-0.625145186,0.381707762,4.521470975,2.236775505,1.513383847,10.3997187,15.57119285,3.936974951,13.35185625,2.9808659
1.837209949,10.78793133,6.204616189,-0.129509379,4.643172894,-1.923549288,-0.52338486,-3.786862743,-0.043668623,-3.721611806,-4.301435807,0.873588959,-0.775756736,-0.230757756,8.680047405,13.74492969,2.888963738,12.71609866,2.876902846
2.537536765,10.89371256,7.043878759,-0.37271939,5.987336772,-2.03950998,-2.117506916,-3.946455416,-2.655719717,-4.637422361,-8.894292362,-4.116280078,-4.298866473,-2.585323311,5.607640677,10.101705,1.149867975,11.15055856,3.198843228
2.804937249,10.28207842,8.0925799,0.582937202,7.532970616,-1.558688494,-1.532498123,-1.968220041,-2.258900177,-3.094486311,-11.62328008,-8.594350416,-6.555060532,-4.468305369,2.121538734,5.629528349,-0.599091402,8.699692167,3.694335902
2.356036367,8.939399245,8.066928813,1.617083147,8.742164051,-0.673032228,0.570013619,1.180209763,0.49114629,-0.445884739,-11.60506625,-10.95245927,-6.428555611,-5.290870828,-0.834484428,1.701949023,-1.880567479,5.675739572,3.93037278
1.276185842,7.093405184,6.518572411,1.988638958,9.234825921,0.222101654,3.083354945,4.041398648,3.983111042,1.556820421,-9.055194539,-10.48772966,-3.895988521,-5.086246047,-2.644713545,-0.768213442,-2.722694674,2.538167183,3.603265596
-0.09851138,4.909796973,4.093271025,1.915664159,9.012022837,0.897701463,5.532954041,5.736177281,6.949767751,2.229470723,-4.897383414,-7.544899198,0.127719849,-4.254312348,-3.147370779,-1.895902123,-3.526920243,-0.385862447,2.745288272
-1.386014678,2.27255527,1.915236661,2.291871485,8.444307782,1.421423938,8.185192664,6.421613657,9.215002943,2.443704127,-0.189357818,-3.212426256,4.313152031,-3.230305657,-2.600463543,-2.714365431,-4.654987497,-3.188506972,1.64572389
-2.344103282,-1.160592437,0.613032918,3.781979802,8.004028881,1.96005989,11.22128257,6.864601511,11.3985528,3.760608468,4.220675217,1.168471148,7.46830772,-2.332795738,-1.561984475,-4.441487715,-6.102627412,-6.398808611,0.562137377
-2.971358271,-5.634669639,-0.20371442,6.076626754,7.91335119,2.486021296,13.96393715,7.608813241,13.99749761,6.969593685,7.711830792,4.455519737,8.893161817,-1.789994033,-0.692158794,-7.586637783,-7.508927439,-10.56014936,-0.495011067
-3.485275307,-10.90781358,-1.571369623,7.969048204,7.968354337,2.706525064,15.08264217,8.491234972,16.72523899,11.27000944,9.794797732,6.016650699,8.500343369,-1.759825843,-0.465430593,-11.47246406,-8.434375966,-15.55096919,-1.677154635
-4.171729531,-16.07438325,-4.199517431,8.222218677,7.688110613,2.309569955,13.6974491,8.866735458,18.65444964,14.76041915,10.14347897,5.86893691,6.759249586,-2.22209988,-0.878896931,-14.49218805,-8.627794304,-20.17165303,-2.977381874
-5.167563473,-19.78969393,-7.711495345,6.512221586,6.69011313,1.299731272,10.3374835,8.230469736,18.94383271,15.79049355,8.769408103,4.608057816,4.501437631,-2.841944349,-1.364229923,-14.97161929,-8.072714284,-22.49034982,-4.004377692
-6.312173646,-20.86003821,-10.76443161,3.654975826,5.004462012,0.08724317,6.746478145,6.610420186,17.44103548,14.04316833,6.133853336,3.108112864,2.601937197,-3.027763972,-1.074066958,-12.13438873,-6.85743675,-20.9365149,-4.143640918
-7.200436891,-18.91075563,-12.00347986,0.930002041,3.077111778,-0.791244804,4.571709955,4.400054172,14.65287321,10.51746317,3.005831484,2.080440956,1.611806158,-2.272549391,0.534848514,-6.599984724,-5.082109938,-15.48033691,-3.054663021
-7.441197433,-14.72286131,-11.10326766,-0.910718438,1.463393701,-1.094956357,4.055065585,1.890946446,11.21621297,6.567029913,0.103669419,1.715290449,1.515441447,-0.577788387,3.189977002,-0.116742614,-2.933497106,-7.992019241,-1.094459956
-6.946861936,-9.95379223,-9.044081781,-2.093872086,0.47293122,-1.064958358,3.921923051,-0.941100979,7.455329206,2.926566883,-2.22872157,1.641040449,1.786567375,1.401919362,5.786285712,5.315243684,-0.821430479,-1.345913975,0.764711075
-6.011174719,-6.311243248,-7.368906571,-3.362992148,0.067211141,-1.18895152,2.612866127,-4.133368445,3.456567117,-0.44241906,-4.073613491,1.249886783,1.751450106,2.694356671,6.985263397,8.413889647,0.657034833,2.247878407,1.566883624
-5.074385497,-4.633754449,-6.994288696,-5.046237495,0.083027014,-1.738041184,-0.230024882,-7.238702415,-0.490228589,-3.695131737,-5.710535489,0.169808258,1.038246052,2.641570462,6.077512412,9.11210877,1.01958064,2.542368589,1.100906891
-4.343241905,-4.468021945,-7.524446061,-6.526866858,0.550094827,-2.48706859,-3.375168243,-9.241168608,-3.650776525,-6.423322807,-7.323759168,-1.464780835,-0.201347684,1.363476926,3.495256338,8.320930133,0.269378156,1.222730788,0.115175502
-3.596869584,-4.463099548,-7.623450475,-6.643716289,1.765620608,-2.880477042,-5.082368452,-9.157073219,-5.198090769,-7.731504131,-8.880486515,-3.143623784,-1.456090201,-0.321080937,0.565951752,7.168630259,-1.009959698,0.546419643,-0.225462472
-2.390227772,-3.354752458,-6.146501915,-4.716546322,3.997569717,-2.51166029,-4.675146576,-6.912695632,-4.934432019,-7.072614892,-10.22426463,-4.39047622,-2.263065594,-1.473773809,-1.348089877,6.256753744,-1.998519065,1.672962754,0.740035918
-0.525413786,-0.866500923,-3.11405471,-1.300917687,7.046224431,-1.497198757,-3.158364375,-3.707752548,-3.702559301,-5.037003022,-11.22885155,-5.102350812,-2.524332387,-1.67227068,-1.704040629,5.435624995,-2.20386608,3.950973111,2.609115158
1.616588048,2.129754148,0.260589113,2.038076323,10.08110346,-0.411647197,-2.299186136,-1.402521689,-2.978977848,-3.22789998,-11.8402472,-5.537399219,-2.485732346,-1.214279244,-1.003622421,4.210955211,-1.788296362,5.674364515,4.206924015
3.231297025,4.327754515,2.510756072,3.822271867,11.99271191,0.16502081,-3.007106728,-1.277786522,-3.839633865,-3.143398441,-11.99600493,-5.983635335,-2.432250083,-0.762633451,-0.253903667,2.421537307,-1.361942446,5.646721396,4.534874987
3.685266223,5.042627479,3.061768217,3.757972211,12.07400124,0.091400834,-4.509750555,-3.11025156,-6.09370895,-4.927612429,-11.56585037,-6.422898586,-2.402070004,-0.76131625,-0.120197422,0.622966929,-1.395570285,4.254583145,3.619342138
3.087484313,4.784880093,2.662730405,2.930058892,10.52727247,-0.2858727,-5.09742214,-5.32846491,-8.324748821,-7.083845642,-10.43471427,-6.501906748,-2.18974139,-1.115937255,-0.44249275,-0.161357516,-1.759724295,3.175809648,2.549042954
2.321948997,4.878711362,2.770339557,2.919207287,8.370790014,-0.506424353,-3.754800289,-6.171261408,-8.868722509,-7.503793724,-8.67214547,-5.835740167,-1.623678166,-1.369942553,-0.458453175,0.838418437,-1.814934926,3.988333506,2.634664205
2.430684144,6.399812084,4.390843781,4.551560306,6.765065225,-0.442663329,-1.160891797,-4.960707652,-6.993303023,-5.065934482,-6.598044168,-4.360960558,-0.829540061,-1.163292866,0.509592924,3.496824564,-1.001025159,6.849880517,4.347804762
3.791359633,9.268575401,7.298287757,7.280403345,6.242327674,-0.408585452,0.888023737,-2.513947766,-3.382006518,-0.543169946,-4.627943671,-2.412600446,-0.19303205,-0.533065268,2.496713299,6.751777204,0.588998379,10.33958264,6.893945692
5.760071919,12.2377309,10.21528923,9.66164321,6.418260315,-0.837849606,1.108409782,-0.427762929,0.395510761,3.907445637,-3.008989651,-0.464253007,-0.025045057,0.199703137,4.898544235,9.237886309,2.187770428,12.56826556,8.770898859
7.115163738,13.8098397,11.76527262,10.48724408,6.398009948,-1.838780494,-0.110614278,0.131348267,2.938810489,6.262660898,-1.705775433,1.20571801,-0.242644494,0.800482343,6.963584651,10.14629761,2.954660927,12.61598598,8.871012448
6.986939445,13.36769539,11.42590223,9.641125242,5.54655943,-3.047906993,-1.119021299,-0.834866588,3.76331756,5.96454568,-0.581486561,2.589571335,-0.405375546,1.345791403,8.306501284,9.679702658,2.705166284,11.12290481,7.257709866
5.533482504,11.61890055,9.779149559,8.035383603,4.015017623,-3.923717837,-0.6181487,-2.380560933,3.27331102,4.083596032,0.279171178,3.69801269,-0.134140826,2.052722097,9.016409372,8.780168222,2.121241726,9.612689271,5.032062708
3.805123145,10.00641303,7.960670436,6.780920187,2.623910321,-4.207162322,1.05005785,-3.466114001,2.193719148,2.320590974,0.451600715,4.260653484,0.440296676,2.874982464,9.341009905,8.367301599,2.214621876,9.195305466,3.451943691
2.901786484,9.573208429,6.827700228,6.347911596,2.225457709,-4.113675132,2.189273198,-3.653303793,1.071108116,1.755368069,-0.539422125,3.745318119,0.63829122,3.298259886,9.308214582,8.686956038,3.461904114,9.761779649,3.045581084
3.117961626,10.20003343,6.498575298,6.389532918,3.070470488,-4.070524443,1.384915928,-3.14166266,0.212986674,2.322978936,-2.715121813,1.769021319,-0.283626803,2.621158003,8.660125599,9.247862022,5.339017398,10.28123674,3.404132795
3.780533952,10.80566761,6.519453458,6.264755563,4.670665255,-4.246622603,-1.048982591,-2.314801286,-0.116331097,3.257891943,-5.399200716,-1.445254443,-2.483193303,0.553772137,7.136304487,9.327407512,6.667451773,9.824089881,3.726594024
3.895716718,10.29444847,6.379062452,5.698633123,6.223138095,-4.332664222,-3.237212453,-1.373293126,0.30762709,3.909785003,-7.567888486,-5.044267579,-5.275160458,-2.381155262,4.796566658,8.577853161,6.503475827,8.347476137,3.568862609
3.033976744,8.439060686,5.881824759,4.975784076,7.216088604,-3.808282117,-3.456997755,-0.414484304,1.327767879,4.139855977,-8.611524878,-8.095955844,-7.534307527,-5.055414998,2.052253633,7.232032985,4.841944448,6.58181277,3.140515145
1.69006436,5.992263405,5.130534436,4.561157875,7.728258677,-2.472176939,-1.823451188,0.252392318,2.104780096,4.057295026,-8.877961413,-10.31301407,-8.470927381,-6.461273721,-0.613704756,5.799567499,2.569531151,5.229158922,2.95335825
0.825145329,4.012392166,4.278672404,4.58648818,8.229249191,-0.738383036,-0.295449236,0.079257404,1.411185699,3.562869475,-9.436728075,-12.28784931,-8.147788072,-6.397948599,-2.934716958,4.600255065,0.744903093,4.304848959,3.217225821
1.016126649,3.046868065,3.390175666,4.729492394,9.107927649,0.613591661,-0.856252361,-1.232200296,-1.410292372,2.331745196,-11.11730831,-14.90941154,-7.2988236,-5.551977904,-4.850989512,3.592951891,-0.159056284,3.262139663,3.574269338
1.971008353,2.876559056,2.551926394,4.593962057,10.3436574,1.053795608,-3.470501464,-3.124055649,-5.502261756,0.345949362,-13.55363297,-18.33793179,-6.598536225,-4.893012334,-6.226687078,2.635505744,-0.427473938,1.740876528,3.414009634
2.827029479,2.96131751,2.053099671,4.194623055,11.55878375,0.745233767,-5.76526743,-4.158230407,-8.507361117,-1.584944604,-15.09660959,-21.39884568,-6.01691377,-4.882849673,-6.646593631,1.864536724,-0.619565449,0.146867554,2.460427932
2.941352335,3.078052075,2.333766624,4.045078253,12.33997401,0.400392154,-4.914255096,-2.869923084,-7.877646289,-2.001564771,-13.83959235,-22.04603616,-4.841968575,-5.155951361,-5.616014882,1.743940111,-0.941516237,-0.586890319,1.077216685
2.448458363,3.504109757,3.639712174,4.731944486,12.51080888,0.647505188,-0.185468712,1.024877607,-2.726515675,0.242824444,-9.085317363,-18.72510569,-2.38208871,-4.923437758,-3.084374923,2.649311125,-1.076147704,0.09534673,0.00858018
2.084352616,4.583312198,5.669623809,6.358094655,12.13925265,1.453344626,6.112783047,6.069479387,5.170137513,4.942605921,-2.127767735,-11.67629483,1.246156655,-3.727478739,0.19083309,4.347619919,-0.596847912,1.656780775,-0.205263271
2.455486075,6.147415314,7.598341604,8.374481823,11.3440163,2.122838969,10.24716835,9.775625348,12.15976928,10.35438761,4.338805203,-3.134657588,4.949126798,-1.876786539,2.900271043,5.921352464,0.483091858,2.708817037,0.388282539
3.439331848,7.435608087,8.567735506,9.965391284,10.1458811,1.897640005,9.957041895,10.22030627,14.91638431,14.17623518,7.837843809,3.84947161,7.307757196,-0.188851245,4.013943761,6.347006063,1.605496185,2.126781778,1.294437978
4.276953891,7.679824452,8.298974237,10.64428625,8.530834651,0.640905495,6.179671852,7.361922154,12.55391747,15.03272319,7.601741699,7.198630576,7.553592809,0.711487705,3.571692984,5.330440523,2.144690567,0.10649123,2.067095525
4.271915641,6.844293932,7.310377768,10.53556953,6.646897979,-0.994192966,2.129471159,3.050915755,7.128060318,13.33722276,4.868825755,6.938796584,6.080906014,0.892948434,2.726811368,3.675176356,2.011913243,-1.824655321,2.676067031
3.441535373,5.784026972,6.517596342,10.12643333,4.896359699,-2.068295483,0.562702649,-0.283258034,2.178719889,10.87001806,1.842049002,4.88405829,4.081673179,0.964693745,2.888161669,2.763518471,1.766161543,-1.971090043,3.408573951
2.506212409,5.574618291,6.518120848,9.770313174,3.770902883,-2.097161809,1.63580842,-1.245201618,0.411771942,9.43584162,0.176588017,3.177327725,2.618944015,1.421186546,4.579417482,3.466918552,2.060303555,0.106841461,4.430256698
2.220147744,6.54776621,7.153971648,9.432328557,3.52817754,-1.388833607,3.18893182,-0.167149961,2.189323868,9.675330115,0.143966738,2.828241689,1.912383286,2.107515453,6.952401854,5.352642287,2.911763719,3.117628639,5.46453294
2.670322906,7.911086834,7.723084903,8.894039294,3.982683941,-0.70015588,3.070426035,1.529691484,5.769765145,10.90615728,0.972115919,3.315445454,1.40383803,2.327904079,8.41877012,6.901297578,3.52310433,4.966817011,5.935762321
3.211369882,8.368218244,7.646953937,8.156088809,4.610111136,-0.544793287,1.276519111,2.620509797,8.857156893,11.96452018,1.865528318,3.417028525,0.48300098,1.528341426,7.943003355,6.655144119,2.920389422,4.361558687,5.468289851
3.109618426,7.256330433,6.995017678,7.571720046,4.904289439,-0.785753103,-0.100234724,2.882785466,10.12688686,12.21429301,2.717961981,2.455037353,-0.815061816,-0.067340239,5.941206734,4.416577691,0.906684251,1.777673563,4.27261629
2.28824652,5.194828695,6.390597072,7.52509208,4.714866502,-0.86608796,0.962892247,2.856471643,9.654915534,11.87163226,3.926502388,0.881318519,-1.783029089,-1.488478845,3.999770419,1.504330028,-1.543497707,-0.994700564,3.032304172
1.445782922,3.611605833,6.384147767,7.964877136,4.31859294,-0.430976705,4.233645688,2.99399103,8.245340585,11.51183159,5.600910212,-0.232330436,-1.713874027,-1.760738879,3.587134661,-0.201786067,-2.903857282,-2.313922988,2.364572503
1.399371067,3.502578595,6.87875472,8.31183189,4.204458615,0.270001606,7.175093671,3.143398283,6.533105155,11.38023997,7.025692826,-0.277637488,-0.665104229,-0.755933397,4.792761454,0.295659717,-2.296809912,-1.915742497,2.335399078
2.256595847,4.513146361,7.16791968,7.934928235,4.768963951,0.597536393,7.189607167,2.874628623,4.70451819,11.22594335,6.978999763,0.221217552,0.389469786,0.596452275,6.149394944,2.335864908,-0.268771584,-0.914430005,2.474714761
3.228109304,5.210449828,6.596431865,6.812803173,6.136415482,0.154296116,4.101111132,2.235630101,2.884641949,10.76988845,4.694223204,-0.053465689,0.196777009,0.964174853,5.729114212,4.13093096,1.572263283,-0.670909367,2.277790478
3.324113581,4.380027672,5.263651655,5.729270959,8.155513548,-0.784875694,0.486653542,2.032414614,1.526091084,10.23347999,0.62407954,-2.155102699,-1.858741591,-0.374298395,2.658707664,4.182435545,1.815750873,-1.582327942,1.718847386
2.33032414,2.22711549,4.099553019,5.705675409,10.46543155,-1.494991202,-0.594308722,3.175043402,1.197290922,10.27687902,-3.695757226,-5.985798674,-5.308906579,-2.979774125,-2.149610915,2.43600729,0.368989477,-2.844234648,1.280951816
1.131646863,0.370974629,4.169063221,7.077839691,12.53322686,-1.507845487,1.53955055,5.614889964,1.908432118,11.31336145,-6.613150267,-10.29482242,-8.969105943,-5.601916898,-6.615376599,0.250146403,-1.5120653,-3.309481861,1.45944339
0.99846923,0.543844259,5.755895661,9.035671686,13.70614198,-1.141278902,4.42822953,7.952976715,2.744480186,12.86978558,-7.377283504,-13.51676828,-11.77522896,-7.113259048,-8.928489875,-0.753976184,-2.308716769,-2.578595903,2.209573486
2.414540112,3.074166707,8.021235755,10.12750205,13.40504592,-1.301479834,4.650179807,8.313357191,2.403424654,13.73138183,-6.415681889,-14.73530245,-13.38599079,-7.248250611,-8.658442143,0.025884487,-1.500680941,-1.298524517,2.892243522
4.518830906,6.494304137,9.5798799,9.404681488,11.46907328,-2.663916734,1.049739816,5.912217506,0.362030035,12.91176109,-4.750212438,-14.03895813,-14.11280114,-6.583161252,-6.727309324,1.819857029,0.091021106,-0.436421098,2.822065931
5.749361972,8.680038682,9.55547618,7.262499923,8.431235276,-4.948493349,-3.979811692,1.973510321,-2.356325189,10.64983901,-3.159876284,-12.12518099,-14.36520359,-5.874862165,-4.421033891,3.294063359,1.155727686,-0.276600433,1.940451617
5.195230675,8.583631764,8.244722618,5.211566801,5.414443897,-6.987161404,-6.482425363,-0.957571728,-3.668487035,8.471570284,-1.825103164,-9.642392222,-14.20457156,-5.407542381,-2.371955319,3.751492793,1.145756195,-0.139853095,0.972047523
3.456865172,7.057442778,6.830545121,4.694923789,3.557338594,-7.607094974,-4.514409167,-0.917416456,-1.984706112,8.099252804,-0.63598746,-6.878652106,-13.42347388,-4.913929113,-0.350643398,3.651994461,0.77566,0.886683983,0.859791813
2.176768439,6.025100838,6.386149064,5.908047987,3.285934455,-6.602950888,-0.04211911,1.869552241,2.381891524,10.02853,0.322558001,-3.958579731,-12.00283626,-4.049618166,2.102616182,4.024731358,1.302561886,2.917839026,1.937497571
2.576639452,6.713044345,7.015854798,7.626324586,3.983254492,-4.937498651,2.705359935,5.068131626,7.189917893,12.98132116,0.724126639,-1.171874373,-10.39958101,-2.87383128,4.936635737,5.360369007,3.25101415,4.973523692,3.578318657
4.286952933,8.520799797,7.855372391,8.213405321,4.397977968,-3.953229857,1.06758647,6.023075069,9.782657049,14.77429993,0.477494157,1.040702233,-9.280002279,-1.822123112,7.499633163,7.040751154,5.785468148,5.77723399,4.667015264
5.579357578,9.576283853,7.905066675,6.971428456,3.570694847,-4.253617004,-3.516490948,3.834569446,8.986901244,13.95273926,0.167211747,2.494221106,-8.893085266,-1.203359027,9.173042155,7.864945883,7.3656179,4.94827255,4.509060468
4.890368848,8.517781869,6.947257111,4.687214292,1.589124654,-5.23373485,-6.725532094,0.010009965,5.872757443,10.86426926,0.82562128,3.609188408,-8.709539314,-0.772718313,10.06466237,7.207929568,7.133178115,3.448861467,3.375476497
2.31470088,5.894611912,5.736352262,2.915828014,-0.454142307,-5.687024923,-5.366780611,-2.832332302,2.781729106,7.301331191,3.042727834,5.212485588,-7.782955203,0.102693408,11.01863064,5.730112387,5.755329273,2.790322221,2.190162128
-0.327526111,3.849297195,5.302566434,2.636647552,-1.319181876,-4.953800349,-0.52742982,-3.086213967,1.481761812,5.048518717,6.18297533,7.810024999,-5.624639124,1.756939948,12.8571701,4.922484912,4.888771117,3.666677022,1.644545407
-1.029613172,4.257718332,5.998019882,3.45549061,-0.625472563,-3.568390376,3.197949726,-1.309934324,2.007166539,4.577854765,8.574067745,10.9449221,-2.827147847,3.672941311,15.538093,5.819946808,5.678744874,5.280781143,1.567635524
0.554314239,6.940692915,7.138152906,4.027496035,0.827153103,-2.79035783,1.935297711,0.499503962,3.069538404,4.9469924,8.745852048,13.32023078,-0.784013601,4.701951959,18.04774637,8.007837326,7.644012127,6.048964072,1.164483273
2.643073111,9.602569956,7.553562758,3.280895955,1.720934209,-3.417227654,-3.591610515,0.756478241,3.493834631,4.856558256,6.770109099,13.74900382,-0.610704488,4.012681365,19.1917873,9.846030979,9.025683524,5.093223282,-0.077327718
2.793851835,9.681833471,6.551942274,1.315647725,1.335751404,-4.964686025,-8.310419791,-0.44228899,3.248734656,3.815562536,4.461795602,12.20114797,-2.1342603,1.978747285,18.59239076,9.780738727,8.373748239,3.13058391,-1.688940941
0.109732158,6.568385561,4.432290957,-0.823567504,0.173157515,-6.012515391,-7.324538779,-1.718866041,3.115910484,2.35761417,4.050127132,9.992217087,-3.873743167,0.123365968,16.96369509,7.62935491,5.96130439,1.847709744,-2.483658642
-3.786132825,2.212257947,2.117652316,-2.235970914,-0.46873986,-5.466238543,-0.774710339,-1.981874591,3.431286182,1.225541318,6.280216344,8.802281531,-4.152125498,-0.010685299,15.38134811,4.706314104,3.668858814,2.245673884,-1.664117185
-6.016747232,-0.512277477,0.290953354,-3.030165962,0.366849526,-3.606884279,5.621677087,-1.556824459,3.306871074,0.460035143,9.567131976,9.239955031,-2.488580682,1.790483752,14.22060792,2.663782651,3.313764143,3.492928138,0.206206018
-4.986969022,-0.324059707,-1.12405205,-4.087286753,2.421347246,-1.922178088,5.381578322,-1.721247681,1.323828888,-0.596698722,11.09091758,10.17773734,-0.091998151,4.032434357,12.80624908,2.077585249,4.870454776,3.494774359,1.369603191
-1.958582582,1.313993905,-2.633447006,-5.918557461,4.39366321,-1.785583915,-2.537863651,-3.08907281,-2.801976386,-2.333829651,9.091722382,9.550981932,1.03778571,4.57549751,10.19501625,2.067878278,6.276283333,0.857086015,0.244968349
-0.109224259,1.553208417,-4.329351743,-7.767434061,5.043952708,-3.142535668,-11.89035351,-4.53359596,-7.241410911,-3.97187945,4.472848164,6.097151186,-0.276927492,2.385175613,6.41648566,1.327533724,5.204606373,-3.475202015,-3.063722956
-1.684990354,-1.056435527,-5.420018878,-7.995993705,4.271581982,-4.458431125,-14.00076981,-3.968016314,-9.040012355,-3.858443768,0.235527434,0.627643215,-3.401581769,-1.476294265,2.946684929,-0.378090222,1.380311865,-6.55132542,-6.488395209
-5.679302394,-4.847157634,-4.736679366,-5.62455146,3.184472841,-4.109204901,-5.692402373,-0.531529535,-6.595239208,-0.992411312,-0.956830616,-4.314337301,-6.393633273,-4.545513169,1.770789076,-1.691756114,-2.672433087,-5.728438598,-7.405071095
-8.266146906,-6.124049078,-1.897382859,-1.682926351,3.037963699,-2.047031634,6.706761276,3.845789304,-1.536863045,3.5241113,0.899423959,-6.27464672,-7.62056099,-4.888596939,3.677265629,-0.76668461,-3.387049389,-1.120856323,-4.74646539
-5.971284343,-2.409238219,1.926129625,1.052650015,3.951668941,-0.173732285,11.60742593,5.325109856,1.952738589,6.667054017,3.018318245,-4.779417199,-7.123041587,-2.71078719,7.277609002,2.857316693,0.804297384,4.04563589,-0.089238904
0.912675788,4.85664148,4.511834286,0.086109428,4.595735192,-0.865019918,2.057966836,1.273977562,0.329259,5.615055562,2.230564463,-1.723286871,-6.511018429,-0.246696379,9.810024092,7.304350571,7.673117797,5.806594431,3.33583339
7.698819657,10.68535143,4.193085747,-4.491343776,3.262148451,-4.730789883,-16.74407527,-6.806734137,-5.980584186,0.323079474,-1.940164796,0.156456868,-7.409841731,0.090706194,9.308540268,9.414817323,12.38759256,2.833882959,3.108097505
8.435744558,10.1003344,1.350386957,-9.432495666,-0.486658755,-9.549716183,-29.35839493,-13.29908916,-12.02837626,-5.693274095,-6.19654287,-0.451699169,-9.763282647,-2.166713956,6.42479937,7.195704838,11.06437313,-2.009206981,-0.345832544
0.648150505,2.255087997,-1.531523312,-10.33369949,-5.017377159,-11.53508681,-21.1991974,-12.06346796,-11.55106691,-7.431841981,-5.61310865,-2.278460665,-11.52665407,-4.948255135,4.26145838,1.731885335,3.985412274,-3.503386351,-3.855095264
-12.05582255,-8.262958647,-1.519313122,-4.952806976,-7.514429164,-8.197195774,9.252846557,-1.235715194,-1.846526479,-2.099486248,2.397424736,-2.449463336,-10.18231879,-5.200185033,6.094594516,-3.15762545,-4.180474687,1.857632721,-3.834760493
-21.86500799,-14.28805435,2.528035402,4.678481563,-6.023880678,-0.604918825,47.01839916,14.53364871,13.44271733,8.368348701,15.40055245,1.118650178,-4.95023496,-1.435436277,12.64420745,-3.516205117,-7.569142707,12.70976728,0.874177869
-22.05780836,-11.15978285,8.863357353,13.17838821,-1.080291228,6.892543527,69.6417536,26.54064077,26.11882215,18.14370644,26.89969936,7.81981224,2.1398739,4.782768407,21.0892075,1.768394496,-3.426376888,23.22806064,7.880009018
-11.85566784,-0.218247005,13.8604365,15.35158935,4.448560098,9.524179105,62.67012327,27.78140176,28.84558608,21.38487552,30.55444888,14.53750266,7.345486054,9.716524572,26.7676567,9.916981841,5.757646897,27.04198684,12.79517812
2.854518912,12.00869163,14.48897095,9.835066806,7.307324966,5.504493365,30.15872763,17.87998812,20.32219754,16.39515835,24.64606203,17.8297011,7.785883054,10.11369009,26.39296025,16.05546967,13.96432727,21.78399184,12.36399736
13.55402988,18.37059825,10.44647979,0.132809644,6.159960143,-2.595674021,-7.860506032,3.461149164,6.314430486,6.906440839,13.40445868,16.41655326,3.550078,5.615398364,20.3566499,16.56753002,15.93320625,10.79290544,6.814049912
14.90563241,15.98795933,4.353522015,-7.784810158,2.491241189,-9.619415502,-29.25028226,-6.43113401,-4.334525651,-0.574153701,4.084853778,12.00022295,-2.333958038,-0.976458683,12.34472102,11.49473254,10.77565545,0.651375286,-0.333547781
8.064839499,7.860279095,-0.122653374,-9.570812831,-0.592554588,-11.4484673,-24.72599883,-6.53837491,-5.815800731,-1.419725831,1.888377683,7.782464686,-6.109881483,-5.788779961,6.581468088,4.22455902,2.258849407,-3.535287024,-4.808232183
-0.796272359,0.180630649,-0.790916471,-5.289830341,-0.721359443,-7.778581064,-2.994769899,1.323627522,0.892324881,3.932984729,6.464182787,5.90245648,-6.017927481,-6.689934171,4.860616513,-1.173952337,-4.263701279,-1.497917395,-4.529151075
-5.359255563,-2.364940344,1.757371722,1.044381534,2.053793876,-2.022267997,17.15090718,10.16740345,9.26895071,10.59912878,12.52207941,5.875219358,-3.455585596,-4.65088931,5.636516727,-2.825322231,-5.751294986,2.656956096,-0.768390119
-3.581232665,0.333521073,4.919546094,4.647317938,5.50812668,1.455634498,21.14430779,13.26089463,12.32950919,13.06213509,13.97110027,5.266843646,-1.715683859,-2.671763773,5.750008221,-1.958745156,-3.223403973,4.118091566,3.171349951
1.543860448,4.489541821,6.180916022,3.351196185,7.127044954,0.559850475,8.373175634,8.877694264,7.596124124,9.203679941,8.402240008,1.994982483,-3.327623863,-3.230632691,3.254798619,-1.360094151,-0.265561189,1.174603377,4.553856757
5.046156171,5.908764038,4.857590188,-1.273347476,6.06052854,-3.287734714,-9.386731985,0.945415015,-1.643815187,1.552372284,-1.375840649,-3.685883798,-8.080666674,-6.328815373,-0.992376519,-2.839275462,0.188361841,-3.831818659,3.01578185
4.090136121,3.275839347,2.230911701,-5.634998865,3.607941491,-6.644712912,-18.45327186,-4.504314382,-9.352414303,-4.958676002,-9.672901182,-9.17701187,-13.21677132,-9.633583171,-4.19568814,-5.842595349,-1.92031514,-6.919967387,0.329294379
-0.158376447,-1.285652035,0.189922297,-7.068351549,1.949783732,-6.904475011,-13.72488216,-4.019187252,-11.35398643,-6.750415427,-12.12697269,-11.524726,-15.55238497,-10.4778189,-4.090598826,-8.221299881,-4.192854166,-6.008372829,-1.412573824
-4.083308507,-4.459074281,-0.351553264,-5.641731267,2.266744334,-4.195776508,-1.196269062,1.08251655,-7.949867179,-3.9264623,-8.56292862,-9.777550978,-13.81691397,-8.013355817,-0.887396798,-8.298232218,-4.174292743,-2.568872614,-1.532802017
-4.914738959,-4.599793276,0.032476195,-3.600806705,3.816690534,-0.953545281,8.420707512,6.364134492,-2.861044604,0.396330903,-2.55968352,-5.781122356,-9.421937172,-3.792974819,2.919338873,-6.350776578,-1.519200451,-0.129610433,-1.028965736
-2.877547694,-2.781945041,0.110299779,-3.20210845,4.672599237,0.266806649,8.827528321,8.025277351,0.164576798,2.863244657,1.586849509,-2.758132689,-5.189944388,-0.419156475,4.643987014,-4.260976693,1.882864373,-1.069112873,-1.32702161
-0.558049571,-1.383699278,-0.712474453,-4.867026126,3.428204127,-1.168940247,2.421923388,5.607991627,0.114580463,2.359819318,1.962311005,-2.815068418,-3.169939795,0.530133502,3.594982318,-3.748496116,3.733670636,-4.517642186,-2.778251183
-0.341658936,-1.730641036,-1.823135586,-7.099947289,0.419947124,-3.679823845,-3.076388476,1.721496654,-1.215953761,0.333264923,-0.089979433,-5.3654731,-3.280970186,-0.409345737,1.524498338,-4.824795703,3.347430564,-7.134056311,-4.268249063
-2.318019813,-2.985514617,-2.021541041,-8.01707233,-2.519228406,-4.976997439,-1.917396889,-0.546734259,-1.455912835,-0.947768157,-1.639143641,-7.695723509,-3.738446975,-1.277385155,1.021342594,-5.85109149,2.071759084,-6.029961059,-4.249573744
-4.429905328,-3.186254344,-0.71577034,-7.029013858,-3.514201066,-3.976779557,4.995408867,-0.121549137,0.029663729,-0.461773518,-0.737830111,-7.177486334,-2.750686244,-0.457020948,3.247073569,-5.121560012,1.836562475,-1.315104142,-2.239716003
-4.551219934,-1.341149682,1.405798238,-5.249180921,-2.088154866,-1.538426505,11.64793205,1.650500561,1.746701668,0.92193572,2.204968907,-3.35583008,-0.031990984,1.997627628,6.913089624,-2.53386496,3.236471899,3.880508287,0.564490215
-2.511601167,1.422682371,2.83280445,-4.411243946,0.546514512,0.439897996,12.67363268,2.656998687,1.713284389,1.542370559,5.115940343,1.690026622,3.036594331,4.513871823,9.303748488,0.163441101,4.914640865,5.889330825,2.121124458
-0.249583665,2.740203464,2.426272927,-5.356220276,2.489976803,0.649555267,7.944419776,1.999882043,-0.54362597,0.578508006,6.138720254,4.902274998,4.587846674,5.383928937,8.437370588,0.799816921,4.799493521,3.40061428,1.143498856
-0.022048057,1.132444656,0.323861262,-7.417271195,2.566228277,-0.684838636,2.143786901,0.530883309,-3.490421875,-1.308972128,5.020660428,4.423999029,3.721471255,4.145726587,4.567321745,-1.334514528,2.072062283,-1.593803149,-1.857766374
-2.323175525,-2.544436596,-2.195751637,-9.149259627,1.032717273,-2.234792936,0.164934011,-0.322260829,-4.980182007,-2.797241231,2.971224855,0.728488997,1.056715036,1.834411805,-0.145301531,-4.784906491,-1.908843317,-5.479082001,-4.935551275
-5.370685396,-5.6528882,-3.74065278,-9.661124779,-0.845003002,-2.842351808,2.732664563,-0.133112317,-4.217375321,-3.284278791,1.352263449,-4.034352383,-1.947697512,0.002463464,-3.404582458,-7.039696741,-4.577332249,-5.845931698,-6.156007558
-6.590541204,-5.897452,-3.83915067,-9.347824944,-1.849074076,-2.464798043,6.088844497,0.092104544,-2.519720177,-3.487392273,0.46886831,-7.781129282,-4.220646255,-0.571768304,-4.471237347,-6.539665272,-4.223800792,-3.16072761,-4.968630994
-4.781059557,-3.213278921,-3.137667317,-9.424306855,-1.586592172,-2.026811434,5.713904804,-1.012048157,-2.225846497,-4.713903085,-0.528966793,-9.880542224,-5.809119389,-0.394123666,-4.425627728,-3.91950627,-1.401379382,-0.061134834,-2.456326677
-1.091831082,0.182828625,-2.673502968,-10.74246159,-0.470458044,-2.435865624,0.500916315,-3.680752921,-4.7319335,-7.518315687,-2.686196924,-11.18176519,-7.589648818,-0.638352485,-4.925687626,-1.463558216,1.510672198,0.945328887,-0.370984604
1.968713039,1.609498165,-2.915836511,-12.96727916,0.864870316,-3.714081039,-6.354261045,-6.573183487,-9.343442519,-11.01263881,-6.159465575,-12.86373128,-10.32079345,-2.02598125,-6.621499008,-1.24806729,2.213745671,-0.599955392,0.19490124
2.5802456,0.070403933,-3.414141986,-14.82159427,2.064415826,-5.005551525,-10.33060978,-7.832477768,-13.84909748,-13.47618622,-9.937532113,-15.18611475,-13.88386775,-4.185348581,-8.574236049,-3.504486359,0.284256833,-3.043953177,-0.540371595
0.956058837,-3.031228994,-3.311836421,-15.15341108,3.053712582,-5.380085795,-9.546771627,-6.7051299,-16.2251372,-13.72270318,-12.51430668,-17.16611776,-17.30087901,-5.979921283,-9.085909835,-6.504467909,-2.584880526,-4.236813291,-1.470349514
-1.07234245,-5.129702916,-2.212290231,-13.88619007,3.702255634,-4.657650651,-6.136524347,-4.248355752,-15.99018475,-12.01343204,-12.86890183,-17.34469865,-19.41779108,-6.441983192,-7.145644352,-7.981004546,-4.015412668,-3.311246253,-1.615536495
-1.740349327,-4.578106786,-0.598922408,-12.05350255,3.649090134,-3.520676735,-3.979914004,-2.469253528,-14.16771739,-9.735032296,-10.96411169,-14.92374619,-19.62980829,-5.484310776,-3.255298914,-6.868272784,-2.816668269,-1.164914573,-0.861387018
-0.784279917,-1.843235429,0.563883945,-10.92442741,2.574054597,-2.8672678,-5.048047338,-2.637117751,-12.09308492,-8.16925551,-7.507254355,-10.35809758,-18.09910012,-3.840218853,0.984400167,-3.971555487,0.200054363,0.563897416,0.101113553
0.55836949,1.076022074,0.684866473,-10.97770354,0.671723239,-3.032877071,-7.731368552,-4.233335822,-10.25113904,-7.459515189,-3.365413449,-5.037409877,-15.42739419,-2.388750102,4.075394412,-1.141338962,3.006764893,0.95936596,0.445508584
0.841376283,2.382657794,0.092598601,-11.56054735,-1.207496501,-3.57547916,-8.557788536,-5.428804883,-8.153734951,-6.653726577,0.791747839,-0.4405848,-12.19554578,-1.509696923,5.571080806,0.244762151,3.973269953,0.438251155,-0.141248472
-0.247832528,1.858552366,-0.212316281,-11.45989969,-2.028532208,-3.764628356,-5.579972637,-4.646215784,-5.217156519,-4.716018815,4.420858144,2.543961131,-8.789159283,-0.98972252,6.06851436,0.218470993,2.973250824,0.119177797,-1.327390467
-1.680425888,0.806531371,0.604544353,-9.873952523,-1.349959688,-3.276955096,-0.276813872,-1.858431053,-1.683234821,-1.557558778,6.900298439,3.74052505,-5.554084266,-0.444374345,6.420849784,-0.088972006,1.209050009,0.691128259,-2.509457915
-2.109813837,0.762102143,2.489891854,-7.009487705,0.25476698,-2.45578937,3.718842238,1.440111559,1.3408609,1.825295424,7.607258511,3.403983303,-2.969135898,0.228973205,6.965504203,0.419541156,0.095804128,1.864567866,-3.279204662
-1.126415844,2.171570057,4.498350675,-3.902451424,1.562764596,-1.936902279,3.828161084,3.478813585,2.762009966,4.177755631,6.341266729,1.955253246,-1.529974014,0.804524576,7.420380426,1.890755518,0.232035306,2.82531161,-3.598788765
0.398492052,4.132470115,5.500940984,-1.691340047,1.626969235,-2.035439315,0.732969214,3.558921059,2.456328022,4.995376859,3.711637743,-0.039802517,-1.379890221,1.074912747,7.407066912,3.54665364,1.233230127,3.135162599,-3.642744025
1.142242275,5.287402633,5.023914212,-0.932936741,0.528320079,-2.482451612,-2.354253972,2.403291331,1.393758159,4.821580233,1.024929007,-1.809907658,-2.047059227,1.181741784,6.990233593,4.489576305,2.355432642,3.152242908,-3.562158574
0.533327693,4.98920841,3.559372547,-1.404220261,-0.671958236,-2.73874971,-2.596635686,1.35043678,0.808839363,4.632220898,-0.399019909,-2.546382798,-2.621368883,1.550538718,6.677476656,4.482280663,3.192816997,3.576028886,-3.416059364
-0.76630956,3.73372304,2.146952214,-2.394160763,-0.758465049,-2.559106481,0.051790567,1.219857176,1.175312262,4.934159229,-0.035436433,-1.858602998,-2.331481409,2.460197624,6.898224071,4.025600205,3.82189507,4.604857228,-3.266951476
-1.497777087,2.598518078,1.607909546,-3.16134343,0.69699997,-2.252962909,3.031415073,1.843515684,1.907314703,5.414582029,1.526341473,-0.185460192,-1.100937845,3.660096273,7.501881432,3.760991986,4.401439068,5.576878653,-3.242579233
-0.945375878,2.301415778,2.039686666,-3.243932701,3.028404067,-2.388066724,3.652416442,2.537964385,2.025062837,5.409430965,3.013945798,1.279241986,0.371742425,4.434661216,7.796203037,3.82813665,4.767066391,5.498035928,-3.427509127
0.450996488,2.730697776,2.903328075,-2.545612461,5.016059055,-3.216739279,1.515586782,2.908467212,1.135657162,4.672007539,3.334714694,1.255361062,1.10049492,4.114622977,7.125274339,3.781362653,4.496736844,3.997377429,-3.683800178
1.523847491,3.265783736,3.535276678,-1.304791395,5.796030962,-4.369200595,-1.300934371,3.148752943,-0.192173371,3.658463496,2.234419443,-0.768192997,0.503007535,2.618679014,5.467073479,3.092942438,3.382875036,1.808987248,-3.639547319
1.415650858,3.462448819,3.620030224,-0.03139953,5.398825676,-5.112510025,-2.341722445,3.58948147,-0.998763833,3.041829807,0.314149831,-4.129980073,-1.226036085,0.562851086,3.500792578,1.71609419,1.792333596,0.279693406,-2.953904934
0.286180577,3.411335487,3.281276973,0.633154081,4.54437329,-4.950831808,-1.123347835,4.045841749,-0.900190957,2.942101162,-1.510605143,-7.390111511,-3.313693247,-1.159706967,2.075606009,0.156978356,0.480540495,0.282127366,-1.67620212
-0.899213841,3.4822644,2.824941205,0.201591207,3.964455007,-4.027906757,0.463047641,3.737786673,-0.525411335,2.674905787,-2.626522887,-9.263335226,-4.97609121,-1.979311736,1.554445413,-0.995925597,-0.034148945,1.472071535,-0.358305071
-1.24219506,3.79856865,2.444262149,-1.311587369,3.877157707,-2.973140223,0.03443049,1.988344026,-0.978529499,1.360594188,-2.964983954,-9.412410087,-5.891128015,-1.950272982,1.610774412,-1.607802339,0.035421143,2.556538832,0.257467348
-0.62806421,4.028177261,2.153751962,-3.236214138,4.020412749,-2.338897223,-2.903251618,-0.909568978,-2.779148982,-1.092480218,-2.80147097,-8.537489463,-6.249002377,-1.556297113,1.635342159,-2.063843826,-0.116775019,2.371695034,-0.217099389
0.321217284,3.723719925,1.943681697,-4.508831814,4.10207706,-2.143676461,-6.311940791,-3.539027253,-5.234900941,-3.54697713,-2.406693158,-7.749891535,-6.434337906,-1.254333511,1.356350207,-2.790190813,-1.180545556,0.871168297,-1.475901884
0.927560039,2.865282185,1.924003315,-4.288698123,4.160827935,-1.931387324,-7.346486117,-4.231585263,-6.849116719,-4.260595087,-1.887441447,-7.752098732,-6.67489585,-1.1750262,1.095823444,-3.691118052,-3.049292108,-0.798944443,-2.69465241
1.077114776,2.030714195,2.261309694,-2.54370311,4.473725159,-1.280723739,-4.910129591,-2.357067123,-6.471262798,-2.189186754,-1.292129727,-8.435367499,-6.945965037,-1.193397034,1.433330825,-4.071797154,-4.783829338,-1.191539728,-3.120454816
1.201077027,1.963130732,2.950301195,-0.164410108,5.130606311,-0.285984337,-0.742578654,1.026826703,-4.245986062,2.055902638,-0.772755994,-9.11406215,-7.128676335,-1.207940601,2.598245166,-3.185856305,-5.293997722,0.321573464,-2.617148674
1.685625983,2.892485168,3.658313176,1.530858812,5.746880043,0.445411323,1.94603392,3.767167919,-1.5735572,6.416859344,-0.562761756,-9.101752755,-7.179451755,-1.284551434,4.159809588,-0.965901391,-4.190027462,3.087731439,-1.729139909
2.331449867,4.235099648,3.842381162,1.586661816,5.665734489,0.297377708,1.107392553,4.058452674,-0.113162259,8.681187103,-0.756787826,-8.128297385,-7.100625408,-1.498679748,5.310133288,1.710048473,-2.102436299,5.67662006,-1.217213174
2.423620911,4.980922044,3.096470633,-0.047602626,4.521180682,-0.784286873,-2.521615619,1.650872158,-0.62990276,7.911358126,-1.120694789,-6.331104357,-6.75758755,-1.659200578,5.495324334,3.500520281,-0.216948827,6.879586783,-1.45238723
1.374120274,4.466650974,1.465808915,-2.582899034,2.651737762,-2.159076243,-6.146675063,-2.068260857,-2.565582669,4.958065762,-1.169728445,-3.971860881,-5.797232872,-1.265774024,4.836118266,3.494055664,0.5768084,6.414168586,-2.160351328
-0.662561105,2.883876797,-0.530611332,-4.965287262,0.944172776,-2.9259255,-7.269658622,-5.112396663,-4.577978407,1.724561755,-0.512701044,-1.242335544,-3.861716113,0.145029363,3.970626224,1.828984128,0.231163104,4.885081294,-2.703231707
-2.794976982,1.10160162,-2.200375568,-6.506322847,0.185133841,-2.571263175,-5.595922559,-6.200890127,-5.5216221,-0.19921977,0.803419733,1.64037748,-0.998613911,2.501230074,3.467941315,-0.432834183,-0.611797067,3.191965597,-2.635299135
-4.049841257,-0.02214878,-3.07902502,-7.135903397,0.457214989,-1.30780091,-2.941696921,-5.370392014,-5.082505919,-0.495470546,2.249240006,4.200026453,2.083568012,4.996026199,3.334785654,-2.067812835,-1.260101478,1.942426866,-2.058672133
-4.107781061,-0.243608628,-3.146570045,-7.194242319,1.108004567,0.14278514,-1.419843978,-3.584410526,-3.686928827,-0.03882033,3.134508712,5.665242656,4.219284565,6.448907859,3.039205282,-2.510208021,-1.514990711,1.270820522,-1.500049279
-3.475374345,0.025812242,-2.739162354,-7.04196226,1.334865386,1.104843409,-1.642799657,-1.84052854,-1.954484781,0.009240842,3.060225619,5.302232794,4.41103023,6.030618087,2.006140856,-2.157068444,-1.687497951,1.018082614,-1.443585198
-2.961435778,0.193376132,-2.275683829,-6.842125384,0.888636999,1.375093346,-2.504379378,-0.558831121,-0.269984557,-0.862380109,2.161733569,2.921779024,2.473614301,3.822345769,0.128213313,-2.01158472,-2.162456128,0.949092795,-1.926251525
-2.949732911,-0.01116286,-2.0284677,-6.630071955,0.28828805,1.216627286,-2.549373433,0.368679697,1.206947375,-2.237531132,0.979763986,-0.853111216,-0.773170911,0.774218692,-2.154697731,-2.987668476,-2.966943554,0.794087948,-2.514114372
-3.12453684,-0.447626627,-2.07508449,-6.48796124,0.361366034,1.013931964,-1.493540646,1.135391261,2.27905561,-3.23327201,0.092310209,-4.827667989,-3.929564434,-1.912065662,-4.246278385,-5.359348857,-3.737980191,0.209119062,-2.637225185
-2.868818728,-0.893814956,-2.384599023,-6.565180372,1.511840399,0.94753655,-0.425587664,1.737015591,2.619860783,-3.204657766,-0.198268485,-7.854798453,-5.780350075,-3.507296794,-5.870066883,-8.639036573,-4.074492726,-1.113527554,-1.980098765
-1.930306507,-1.383654094,-2.893161052,-6.888376087,3.349941472,0.961373477,-0.563400746,2.112391282,2.038829158,-2.120112651,0.07863455,-9.396933318,-5.889092556,-4.057140303,-7.188953702,-11.8439968,-3.90268582,-3.147418294,-0.633464975
-0.716048312,-2.16954358,-3.486798441,-7.17064926,4.994252905,0.974161501,-1.846837072,2.452977165,0.838961693,-0.421423729,0.724404733,-9.645255067,-4.668441015,-4.099788016,-8.476526829,-13.92717909,-3.502989118,-5.313974149,1.037446872
0.059742218,-3.338678088,-3.949471544,-6.883867548,5.766097039,1.050353074,-2.804936218,3.215414483,-0.182953078,1.365247864,1.549801092,-9.175884231,-2.973482573,-4.105678495,-9.677384357,-14.17444315,-3.194491288,-6.665248985,2.618597528
0.034642357,-4.504196285,-3.998609078,-5.630088691,5.664857559,1.317251803,-1.909782939,4.68348397,-0.248778459,2.87599965,2.40932837,-8.481947634,-1.579749187,-4.12535376,-10.30355301,-12.4728125,-3.002074895,-6.468854457,3.767454409
-0.466398476,-4.96082802,-3.448074078,-3.541683376,5.228979446,1.709622048,0.817006755,6.44937708,0.734986791,3.869932007,3.113681269,-7.76758121,-0.901589853,-3.89153248,-9.804139062,-9.392234589,-2.633348992,-4.777953412,4.21285
-0.745354242,-4.250791655,-2.389371527,-1.348199039,4.94800078,1.841444524,3.489603646,7.386445244,1.95502765,4.088433778,3.379100417,-7.100046035,-1.030080346,-3.19953751,-8.097477076,-6.007283675,-1.781674969,-2.475945523,3.776826039
-0.408902658,-2.647272724,-1.217984522,0.018193082,4.78762792,1.21865683,3.751688292,6.323195031,2.206958206,3.281190403,2.935753055,-6.664199551,-1.892633642,-2.166095683,-5.778101069,-3.440602158,-0.456822581,-0.671806479,2.513854128
0.22660189,-1.066315486,-0.431109451,0.029831409,4.267518192,-0.319211131,0.747867498,2.991453172,0.826605495,1.450312515,1.749898065,-6.775087985,-3.299854909,-1.123033579,-3.772037383,-2.291841984,0.974459491,0.113642512,0.861955528
0.397092861,-0.398553333,-0.3118326,-1.064654604,3.007087826,-2.304429313,-4.023798672,-1.516377975,-1.682947703,-0.916045887,0.177956749,-7.562465894,-4.850804033,-0.273170595,-2.689472897,-2.293221372,2.071534103,0.298998573,-0.422445694
-0.401476637,-0.790872504,-0.729369463,-2.393825295,1.209858836,-3.80818118,-7.746273344,-5.245890458,-3.861553815,-2.907202614,-1.108582225,-8.609225706,-5.891156826,0.531078402,-2.397981275,-2.488960026,2.653598865,0.811145295,-0.643849045
-1.903024883,-1.50463728,-1.217644046,-3.038005086,-0.398421907,-4.021284031,-8.373657718,-6.571995187,-4.233171751,-3.609737349,-1.427328627,-8.955757227,-5.724708919,1.643808258,-2.170515213,-1.905748451,2.875635182,2.216459998,0.344717451
-3.238413935,-1.512797282,-1.290655943,-2.609262811,-1.162149967,-2.836885189,-6.07700814,-5.254961509,-2.301009681,-2.634918356,-0.450292216,-7.624694543,-4.042478812,3.228388959,-1.292083471,-0.280140867,2.999727908,4.159155323,1.942814591
-3.651772166,-0.361853431,-0.774596496,-1.437404056,-1.097366797,-0.977999835,-2.935397008,-2.599531047,1.119030656,-0.390081916,1.585648264,-4.367346326,-1.268445397,4.978011792,0.364096466,1.71205081,3.112229243,5.612428221,3.139654966
-3.136886601,1.422841709,0.074825242,-0.277106685,-0.934967889,0.458160384,-1.245833089,-0.604595238,4.432249715,2.097984041,3.947308893,-0.066391287,1.512048505,6.244504365,2.245944507,2.949626258,3.078665338,5.750696676,3.213796078
-2.426422213,2.73694558,0.740848355,0.20228921,-1.510786086,0.722706816,-1.897450437,-0.707805192,6.24077016,3.693598858,5.725027244,3.598272459,3.105006692,6.510211516,3.569016585,2.740670038,2.774820251,4.695155774,2.276380705
-2.339737572,2.770178436,0.768447361,-0.22629656,-2.992279881,-0.114471242,-4.042046281,-2.969399713,6.077235017,3.68689975,6.257917234,5.098615834,2.927602647,5.821954098,3.922412139,1.39143574,2.336195941,3.467631317,1.197622843
-3.064685273,1.621531854,0.019066944,-1.334681624,-4.610260831,-1.268802233,-6.089780344,-6.164309247,4.48078422,2.078841691,5.474610257,4.024051253,1.403085851,4.813075894,3.550542056,-0.013751523,2.128657027,3.157483573,0.92337323
-4.003876796,0.154620454,-1.289856793,-2.677230324,-5.165267599,-1.812675613,-6.989518291,-8.602391417,2.514209932,-0.468878079,3.981493089,1.397367513,-0.275799501,4.269419222,3.112316671,-0.476322182,2.414222879,3.992535183,1.700675652
-4.309643207,-0.75348762,-2.742961643,-3.840238483,-3.932157453,-1.285489686,-6.718960903,-9.073846606,1.152184131,-2.933420624,2.810480547,-0.913245631,-0.892873713,4.567203685,3.14189938,0.102203741,3.013953357,5.109728082,2.847341408
-3.621351672,-0.907029946,-3.943106987,-4.542939116,-1.242422516,0.069235719,-5.807780976,-7.371091999,0.911062234,-4.335807022,2.881862515,-1.333759903,0.015942834,5.411877206,3.64939167,0.840632528,3.328196459,5.242998034,3.28700654
-2.350069217,-0.84163934,-4.646013602,-4.615723247,1.724124167,1.54275678,-4.619056511,-4.221026657,1.793591964,-4.12305843,4.417921878,0.451797375,1.862653571,6.060745923,4.154384757,0.628399473,2.777907419,3.773477453,2.442896698
-1.273114871,-1.22296955,-4.769236399,-3.981676684,3.77031419,2.443937839,-3.183704246,-0.822474215,3.401553373,-2.408253426,6.658712609,3.326828156,3.367379927,5.835430835,4.087990088,-0.896997514,1.331846454,1.278481686,0.761114976
-0.822473101,-2.157146351,-4.330096851,-2.704157455,4.478797639,2.478154024,-1.646989707,1.705575669,5.088464943,0.054289534,8.150634338,5.455954654,3.333327665,4.535179317,3.229125439,-2.963383607,-0.346550041,-0.86957641,-0.592846019
-0.717017016,-3.037305437,-3.395324768,-1.031028056,4.374557011,1.818992724,-0.654417927,2.755371004,6.166479801,2.219716043,7.564647403,5.423185658,1.348032031,2.487674245,1.855291372,-4.216756786,-1.31506482,-1.522236154,-0.653396207
-0.2665371,-3.060606212,-2.080293594,0.675256752,4.383212797,0.913696823,-1.043360404,2.446056979,6.214814108,3.315842583,4.609394619,3.08416147,-1.992626523,0.282316531,0.538259116,-3.784003354,-1.040225431,-0.571084205,0.541000725
0.936408233,-1.951163616,-0.572991924,2.12617891,5.065597968,0.209068846,-2.984450639,1.558514309,5.385684421,3.308178095,0.423822327,-0.371116558,-5.421836644,-1.551566839,-0.222016545,-1.978362815,0.188459088,1.06288948,1.924847893
2.569619454,-0.244606432,0.86704041,3.270388601,6.232600914,-0.039783188,-5.434657038,1.145920078,4.443263428,2.923387774,-2.927868367,-3.14706121,-7.661859595,-2.695253862,-0.254292168,-0.0600967,1.463398808,2.200753671,2.216203867
3.788825747,1.120172468,1.959640838,4.261948634,7.178059047,0.170236673,-6.642772704,1.910204897,4.346130293,3.129008132,-3.661124239,-3.894060239,-8.031444619,-3.00662751,0.276158096,0.760928171,1.932542261,2.281012856,0.940840699
3.911401396,1.548008171,2.485253515,5.216754923,7.256292094,0.627694957,-5.510463872,3.652584936,5.527387343,4.364137201,-1.443346098,-2.452863066,-6.712270206,-2.456478718,1.047144077,0.266646721,1.412977824,1.661910624,-1.135955562
2.975565919,1.226814918,2.351470412,5.94992582,6.306712414,1.005487406,-2.706629743,5.203931523,7.371646002,6.068021049,2.274253427,0.118845164,-4.595412234,-1.162088664,1.775449362,-0.654785255,0.471801249,1.191526316,-2.521805974
1.69046054,0.885630516,1.608819817,5.954594056,4.638799046,1.007213652,-0.457541886,5.028928078,8.382953819,6.91488794,5.066210173,2.205338285,-2.825998879,0.524902764,2.298315922,-0.813005799,-0.061585852,1.471356346,-2.074150173
0.833822415,1.089499372,0.41114016,4.716417407,2.701468643,0.53012572,-0.975873406,2.236081736,7.087179327,5.676992142,5.011179163,2.552165193,-2.269503328,2.038850173,2.532873582,0.224547884,0.259263379,2.413784941,0.167268275
0.632536124,1.68522163,-1.052917218,2.17228387,0.793213879,-0.236477589,-4.687458344,-2.655495042,3.120118878,2.147083291,1.879447241,0.903791136,-3.12822246,2.823421579,2.400496081,1.688435488,1.198420141,3.373715674,3.000228827
0.65687231,1.878385726,-2.616806063,-1.046494869,-0.953607906,-0.868686745,-9.700281104,-7.791217628,-2.294472768,-2.552419704,-2.755034156,-1.973428876,-4.865848012,2.651761674,1.808376395,2.151458156,2.073967822,3.65232512,4.886456435
0.290465096,0.885632958,-4.150715506,-3.835282107,-2.397312771,-0.930976933,-13.02619868,-10.9672725,-6.916097615,-6.546783146,-6.53234654,-4.826498269,-6.47545662,1.798299982,0.715373969,0.642055107,2.287655855,2.941702562,4.954359315
-0.666577752,-1.371691481,-5.532939554,-5.220352937,-3.290175809,-0.244773844,-12.66397736,-10.94057124,-8.807510974,-8.318863181,-7.748600856,-6.631657782,-6.979546263,0.889298859,-0.76630866,-2.5372587,1.714161015,1.435573487,3.469787553
-1.799216113,-4.092674303,-6.612173317,-4.961847884,-3.416436603,0.9814834,-8.958217536,-8.193840603,-7.534730306,-7.609876618,-6.275677759,-7.055565811,-5.93210278,0.501162491,-2.318834212,-5.909539274,0.69204258,-0.346352983,1.512358729
-2.440139345,-6.07598699,-7.211222433,-3.733744702,-2.838692486,2.266289702,-4.242487979,-4.628236666,-4.430413,-5.514556292,-3.439216783,-6.448332741,-3.670283673,0.784731138,-3.483342848,-7.756917082,-0.291551626,-1.801174778,0.181501138
-2.249148491,-6.480468601,-7.199052869,-2.729825003,-1.971488404,3.142423928,-1.142047295,-2.389432081,-1.751353309,-3.740158831,-1.077322225,-5.484326445,-1.173692248,1.38697607,-3.846331191,-7.200176991,-0.919071191,-2.41739058,-0.065913594
-1.492033901,-5.311054075,-6.599247391,-2.93262888,-1.340589392,3.414600094,-0.902566953,-2.618313234,-1.317663951,-3.559892891,-0.496544812,-4.765293763,0.409116757,1.718727794,-3.270508973,-4.683705962,-1.138181683,-1.914469121,0.462655634
-0.793633402,-3.326292837,-5.649147009,-4.510444683,-1.194836877,3.210666079,-2.941208414,-4.926050091,-3.528480631,-5.145696858,-1.96271112,-4.63896493,0.326129109,1.361882133,-2.033447037,-1.608349788,-1.054241187,-0.4055241,1.075502511
-0.613749583,-1.507975985,-4.728882645,-6.718869323,-1.313874194,2.816726073,-5.716415414,-7.844262332,-7.313124029,-7.638528513,-4.858146201,-5.242692922,-1.410190654,0.327294356,-0.751140151,0.542898222,-0.800948882,1.50279483,1.211127471
-0.919663522,-0.508154381,-4.162324551,-8.350241682,-1.211763143,2.453285234,-7.976971867,-9.830373523,-10.89890988,-9.789621868,-8.160263586,-6.577867181,-4.028081281,-0.983488808,-0.073543886,0.970317172,-0.517045235,2.866981216,0.726528372
-1.318609407,-0.419470142,-4.004763133,-8.431290974,-0.585701183,2.174935758,-9.335038452,-10.10907814,-12.78270134,-10.67581876,-10.81459449,-8.438524934,-6.3486373,-2.030221159,-0.299200228,-0.207467768,-0.3837246,2.883852248,-0.142194365
-1.482353554,-0.922391719,-3.98221878,-6.739555264,0.3807761,1.945494064,-9.900016405,-8.86975635,-12.30532174,-10.05149,-11.86922433,-10.23788499,-7.294047561,-2.393867195,-1.155366522,-2.242769708,-0.589678967,1.437773639,-0.99844789
-1.447345951,-1.61357454,-3.670685508,-3.855157167,1.146310059,1.777638022,-9.606934566,-6.862140802,-9.641042928,-8.231465672,-10.56277219,-10.98520703,-6.317881119,-1.899601494,-1.926870875,-4.260464956,-1.185926557,-0.729123104,-1.48365523
-1.524735426,-2.279815316,-2.832433905,-0.767143557,1.284025973,1.779462318,-8.052927239,-4.811161121,-5.439202485,-5.715854101,-6.583493957,-9.634690797,-3.59620159,-0.611562593,-1.896319782,-5.652573054,-1.962084729,-2.484234333,-1.379221862
-1.944260172,-3.006690851,-1.683824175,1.688112701,0.892876398,2.057263193,-5.02032973,-3.063427354,-0.47321069,-2.859071788,-0.432394272,-5.730728469,0.063368206,1.204944065,-0.821997769,-6.240714099,-2.520029151,-3.169774664,-0.660213453
-2.60824934,-4.137660912,-0.879468405,3.212479038,0.573631052,2.577664204,-1.084939131,-1.584424721,4.536950616,0.240902525,6.461233107,0.061330329,3.540383529,3.106977976,0.883586971,-6.255259683,-2.561200136,-3.218384853,0.45300151
-3.210648082,-6.128288961,-1.178572947,4.052670439,0.960653782,3.143123789,2.441002034,-0.149483012,9.001264722,3.64123835,12.17724703,6.009706679,5.835809231,4.540909737,2.422071831,-6.208475628,-2.176775142,-3.957055881,1.493020585
-3.603195638,-9.314033296,-2.989209201,4.669839102,2.188748839,3.530911171,4.351262059,1.474563894,12.55611584,7.350283041,15.19752206,10.08836923,6.474210567,5.030753433,3.14846498,-6.679763334,-1.8652969,-6.628160196,1.88640638
-4.027782036,-13.63072433,-6.088879231,5.31414506,3.743888964,3.682731572,4.490695665,3.418826694,15.15974145,11.13317895,15.22375808,11.07088349,5.711667465,4.452273822,2.993593943,-8.019903441,-2.196789646,-11.30630613,1.239888251
-4.939793438,-18.41475116,-9.706199758,5.791218409,4.830353785,3.766268765,3.925167741,5.613216805,17.04193155,14.41458569,13.32792251,9.239577294,4.425540271,3.211572269,2.461788602,-10.06659502,-3.348427777,-16.54754133,-0.382465139
-6.534205636,-22.46404537,-12.89828319,5.577620817,4.954814689,4.031347376,4.089931966,7.677386657,18.43746651,16.35563125,11.26411203,6.195347782,3.684629472,2.131334232,2.218996025,-12.05298898,-4.882581892,-20.09856714,-2.406797335
-8.396990007,-24.44614741,-14.9631142,4.215355212,4.252734683,4.56813332,5.574772802,8.912129983,19.25952587,16.14755194,10.37415011,3.85370763,4.174942448,2.024183047,2.600396743,-12.85285731,-5.974913456,-20.20075828,-4.012193569
-9.640315981,-23.51054146,-15.63517648,1.726287492,3.31250206,5.176928694,7.563139829,8.535994591,19.01219173,13.45217321,10.82741011,3.290352379,5.783057504,3.183380494,3.415132958,-11.51674008,-5.948767765,-16.58363011,-4.56830772
-9.478614402,-19.7669094,-15.00783365,-1.243463899,2.682758556,5.48035765,8.418444863,6.147622269,17.10967286,8.764710998,11.69136482,4.210545372,7.602746554,5.136393618,4.168328869,-7.83826147,-4.725652144,-10.5070325,-3.963637528
-7.810725773,-14.31307147,-13.33704793,-3.680388469,2.501680594,5.209164825,6.953848837,2.147024295,13.42790136,3.413002332,11.71790961,5.361422313,8.409561581,6.865250821,4.474748957,-2.619565682,-2.868628528,-3.945258863,-2.613537684
-5.339498136,-8.75999853,-10.93124228,-4.734601491,2.547614835,4.44087059,3.362036394,-2.239567957,8.652334488,-0.94223699,10.22979209,5.52411391,7.35935451,7.3831272,4.298808606,2.552549053,-1.215107275,1.407096724,-1.17330961
-3.123073558,-4.52490874,-8.191729569,-4.206387435,2.612019505,3.596525809,-0.912217684,-5.478118512,4.067832187,-3.120263756,7.481185789,4.332373485,4.502110771,6.302366995,3.838345117,5.942990673,-0.394117089,4.647679204,-0.185051799
-1.905216118,-2.301375856,-5.679056526,-2.680498022,2.800026328,3.1847675,-4.194121632,-6.547551849,0.845502316,-3.085518102,4.323104797,2.354630723,0.791177332,4.031011031,3.206837749,6.421786426,-0.559745465,5.574743437,0.106650151
-1.733059447,-1.965354482,-4.027746963,-1.217564479,3.43855103,3.473472725,-5.648596113,-5.553857222,-0.696087597,-2.01342257,1.537045105,0.477010228,-2.429994749,1.492096782,2.254023941,3.984658174,-1.447900008,4.390552432,-0.286769433
-2.113514871,-2.866925152,-3.673357532,-0.792633652,4.651103395,4.316607271,-5.614288333,-3.713196061,-1.300122948,-1.647021246,-0.613219455,-0.849760271,-4.15940281,-0.42250309,0.726607646,-0.198065136,-2.60336497,1.631618838,-1.231824988
-2.516090621,-4.23602358,-4.56479784,-1.821377405,6.000105944,5.240770978,-5.101651691,-2.680501442,-2.257059074,-3.296618246,-2.329739585,-1.891336284,-4.252956444,-1.304380814,-1.367727214,-4.243376783,-3.558264316,-1.675932049,-2.533916889
-2.778199715,-5.448619591,-6.110627613,-4.03314087,6.585149568,5.712121633,-5.012410622,-3.629875545,-4.507020949,-7.085528121,-3.89820976,-3.267609958,-3.436938277,-1.336355766,-3.554601088,-6.359548301,-3.893466436,-4.051606554,-3.897078833
-3.104067015,-6.095297963,-7.459587209,-6.705515196,5.610828624,5.403107184,-5.718602968,-6.641755156,-7.990944847,-11.89360906,-5.385779068,-5.31208499,-2.840747075,-1.059996283,-5.096796281,-5.662225154,-3.290512685,-4.125371106,-4.907989907
-3.725502144,-5.965717084,-7.953863803,-9.053691429,3.014760987,4.317167406,-7.166632651,-10.72814638,-11.70104216,-16.00087722,-6.680916885,-7.712936548,-3.347900109,-1.009425782,-5.494382676,-2.61475553,-1.682304342,-1.522125002,-5.172302146
-4.572951832,-5.064038578,-7.442572216,-10.52525721,-0.355908269,2.747560752,-9.164297641,-14.41530343,-14.37171762,-18.00753126,-7.774446723,-9.7196532,-5.135426355,-1.442585204,-4.873059751,1.182999074,0.566364917,2.640112225,-4.567461339
-5.258912446,-3.63989343,-6.242965348,-10.89064184,-3.207655956,1.137200279,-11.45231298,-16.49890319,-15.31001717,-17.49149293,-8.950725084,-10.71565419,-7.627575456,-2.277962602,-3.908535477,3.83182781,2.668369453,6.237398132,-3.405153619
-5.372636591,-2.124309512,-4.813752584,-10.19851421,-4.595739679,-0.083231602,-13.54877747,-16.5655684,-14.81401477,-15.09954381,-10.66359284,-10.68092717,-9.846721363,-3.201485064,-3.316940242,4.193046676,3.755627671,7.474863212,-2.30519273
-4.810447864,-0.920157326,-3.426232265,-8.725964603,-4.478247323,-0.638429365,-14.72506493,-15.08491385,-13.97003551,-12.14040948,-13.19773206,-10.20640163,-10.95104888,-3.845874834,-3.32447285,2.552250181,3.406686457,6.154199833,-1.801110958
-3.855538816,-0.159142709,-2.094681735,-6.962068741,-3.636948529,-0.511862165,-14.3951885,-13.12598577,-14.05817696,-9.986362485,-16.44604216,-10.11444402,-10.68753733,-3.964010767,-3.567114159,0.427198902,1.974244598,3.857443376,-1.951247495
-2.959225521,0.373087197,-0.779522013,-5.537402987,-3.053337402,0.028280803,-12.72407097,-11.88556748,-15.99599898,-9.579259095,-20.04465287,-11.0287256,-9.552203693,-3.552051715,-3.50942103,-0.423582872,0.394854629,2.796846816,-2.281848137
-2.430711865,1.044952191,0.375139451,-5.00355851,-3.224140445,0.52657872,-10.87464292,-12.21809591,-20.10904104,-11.17424559,-23.77394398,-13.19149337,-8.583194244,-2.882513228,-3.01349761,0.826207026,-0.455291702,4.145103772,-2.158213201
-2.290471655,2.048435387,1.037542666,-5.511227806,-3.908098704,0.557376035,-10.47273568,-14.30953534,-26.21369292,-14.31745987,-27.86202719,-16.53782274,-8.865533499,-2.406478662,-2.540642532,3.51837173,-0.398202557,7.135740689,-1.330560198
-2.365083594,3.203697895,0.962180492,-6.604347614,-4.432116417,-0.036142517,-12.51688866,-17.60097934,-33.80833343,-18.02566675,-32.87727447,-20.80816786,-10.96134725,-2.530150432,-2.776987885,5.990704783,-0.072200284,9.663195913,-0.222205743
-2.483222724,4.083019967,0.306449652,-7.357843587,-4.257638683,-1.033705338,-16.53717132,-21.02027248,-42.21768986,-21.15020478,-39.24600666,-25.5300442,-14.54938008,-3.365185338,-3.986738552,6.769808236,-0.39846846,9.928604822,0.309501245
-2.574827781,4.370078565,-0.324831774,-6.875468006,-3.352575679,-1.957469172,-20.74664059,-23.47061776,-50.71062969,-22.85732795,-46.78476158,-29.95216794,-18.50487143,-4.618535151,-5.665113027,5.617074462,-1.792933767,7.832088561,-0.392223623
-2.610598941,4.15392712,-0.215624917,-4.872264906,-2.124114864,-2.365685452,-23.19961975,-24.37159704,-58.69743165,-23.03762968,-54.67713098,-33.18044153,-21.45219703,-5.737797874,-6.8367958,3.658120442,-3.754150821,5.014326098,-2.214945237
-2.49543351,3.893771484,0.962256625,-1.937338247,-1.040406982,-2.132452283,-23.14947293,-23.96065633,-66.00853713,-22.39441168,-61.9919645,-34.62986143,-22.547199,-6.260820963,-6.800221679,2.508512958,-5.179061896,3.544883309,-4.223282831
-2.069701166,4.064609224,2.871199017,0.752184106,-0.292556362,-1.522366086,-21.58668344,-23.15346269,-73.07467005,-22.08328109,-68.38978409,-34.55677004,-22.05365495,-6.147934609,-5.716624759,3.070877934,-5.177583469,4.339406779,-5.205805867
-1.244786293,4.773070087,4.688066805,2.116240968,0.237872305,-1.011849444,-20.544118,-23.01775752,-80.78122752,-23.05746034,-74.46623277,-34.2050767,-21.32642518,-5.849130205,-4.539880319,4.920489092,-3.749555967,6.568124684,-4.46266414
-0.140937277,5.670095448,5.630691254,1.805992719,0.730782755,-0.990024563,-21.69776972,-24.17398695,-89.95980813,-25.51402022,-81.41273784,-35.26498623,-22.12757242,-6.025647004,-4.312098481,6.720487126,-1.794587292,8.463545068,-2.284284359
0.929447267,6.242042975,5.451376077,0.357944522,1.158018921,-1.548004836,-25.30140584,-26.49768173,-100.78151,-28.81606311,-90.17300949,-38.8449128,-25.61604801,-7.096038464,-5.371248432,7.294444413,-0.45961956,8.782923753,0.217800251
1.652214652,6.242640908,4.550512447,-1.219856887,1.242698984,-2.480365218,-30.17602151,-29.29701763,-112.4710659,-31.95288988,-100.6633586,-44.61081074,-31.59644943,-8.918418463,-7.091610469,6.489722919,-0.346829674,7.699182028,1.81325078
1.92730395,5.910857953,3.663204234,-2.111364417,0.677975327,-3.454933277,-34.62918866,-31.81233346,-123.600232,-34.21103333,-111.6093602,-50.74904777,-38.49968604,-10.83454258,-8.343642126,5.181771738,-1.182885402,6.455645578,1.910410907
1.928601054,5.803914426,3.388739979,-2.12776964,-0.591847131,-4.198744525,-37.51942609,-33.67522481,-132.8274842,-35.57031602,-121.140944,-54.89285954,-44.14257347,-12.04650631,-8.285268757,4.497814111,-2.144852219,6.20104339,0.872687745
1.961699844,6.396143706,3.913182919,-1.640218331,-2.270140333,-4.578423857,-38.71144936,-35.02652238,-139.6165509,-36.55164363,-127.7813369,-55.47579796,-46.84085769,-12.06709037,-6.862205924,4.958795052,-2.508911844,7.07544491,-0.28243006
2.24921791,7.773040987,5.073997783,-1.133157061,-3.869971997,-4.574004985,-38.77560401,-36.26552387,-144.4540498,-37.67029672,-131.2172544,-52.6499126,-46.24049596,-10.95237336,-4.68093311,6.239464328,-2.080425045,8.305773433,-0.563659178
2.823502056,9.63949462,6.622826456,-0.774921146,-5.007291583,-4.233426284,-38.38763841,-37.66753435,-148.4228842,-38.95171775,-132.4004681,-48.18760945,-43.4187179,-9.20197752,-2.456561861,7.657930109,-1.123183212,9.113734598,0.393328298
3.588217692,11.57606425,8.410297333,-0.344946571,-5.601538391,-3.672863418,-37.98106135,-39.16555099,-152.4315764,-39.90203698,-132.9640115,-44.46663248,-40.25377534,-7.446884454,-0.556467018,8.863091682,0.031881469,9.515014341,2.164839772
4.444358218,13.28126103,10.34090677,0.464583887,-5.852895624,-3.094681373,-37.80240945,-40.42493242,-156.6254799,-39.94698175,-134.3349089,-43.21384421,-38.46949674,-6.155277259,1.001160327,10.05698288,1.273519511,10.23696903,3.862735173
5.328330529,14.60085772,12.19371296,1.666002467,-6.048460018,-2.74188466,-38.07709501,-41.104704,-160.3549389,-38.97010627,-137.0475057,-44.7565193,-38.88061367,-5.511188258,2.20235252,11.56842539,2.638047113,11.84389705,4.686977132
6.126557997,15.38972408,13.54347589,2.85540221,-6.366726949,-2.763701291,-38.94829594,-41.08535506,-162.6714897,-37.50388521,-140.5787795,-48.10495232,-41.16823882,-5.454991006,2.785459626,13.23435769,4.018350412,13.93212671,4.352004901
6.591263186,15.43072244,13.92419815,3.460936263,-6.817507588,-3.081619674,-40.20624,-40.51530755,-162.9687093,-36.41047975,-143.7039234,-51.63613483,-44.1814099,-5.773383971,2.408858583,14.25241435,5.023911497,15.22545068,3.162003298
6.413629849,14.56881039,13.14270795,3.155487513,-7.320587678,-3.394821098,-41.17060922,-39.69195054,-161.3266984,-36.2948725,-145.1185718,-53.87182235,-46.51908006,-6.160194199,1.115873452,13.74169698,5.206966709,14.58236495,1.751717262
5.462975381,12.96754502,11.48851288,2.100719363,-7.81467068,-3.374249251,-41.02710893,-38.89844678,-158.3719462,-37.09359645,-144.0081612,-53.96931129,-47.10569523,-6.27090794,-0.383904976,11.56666577,4.482536772,12.05814932,0.698997006
4.005655625,11.20906453,9.643374363,0.837771073,-8.286818696,-2.926013815,-39.47227548,-38.29651162,-154.8162493,-38.12947461,-140.3412142,-51.86020067,-45.57424256,-5.836407967,-1.007706339,8.667064103,3.32937261,9.044239575,0.251340064
2.672451287,10.04086308,8.322112299,-0.07390517,-8.706816967,-2.310343239,-37.12342273,-37.88645794,-151.0295472,-38.55895217,-134.8208434,-48.17330828,-42.38341484,-4.829891575,-0.063835269,6.505445769,2.513676374,7.27195319,0.297679966
2.120932619,9.879760055,7.882810334,-0.384475577,-8.947803983,-1.987892299,-35.23385781,-37.49623775,-146.9190204,-37.86337236,-128.5604438,-44.04234471,-38.65143403,-3.569885704,2.08969508,5.998400324,2.506371365,7.461015923,0.547433646
2.604184044,10.44734035,8.163751001,-0.220179185,-8.789736642,-2.28075902,-34.81076164,-36.79335463,-142.1301998,-36.05299409,-122.6262307,-40.77084645,-35.72581966,-2.623516385,4.083508263,6.783092338,3.07773133,8.739179723,0.759497643
3.774580182,10.87441884,8.633110031,0.112236799,-8.028785299,-3.103550593,-35.79181609,-35.3678541,-136.3665096,-33.51474756,-117.6199374,-39.32947671,-34.59555325,-2.502217315,4.359435321,7.44508573,3.446509421,9.336686486,0.860787266
4.897962684,10.26825962,8.724044973,0.386394913,-6.621280163,-3.98652545,-36.97511444,-32.92115425,-129.5920675,-30.70414282,-113.4647534,-39.84424088,-35.38116128,-3.326202216,2.233265624,6.564029379,2.902371895,7.993211137,0.898505343
5.33936837,8.355168488,8.134459028,0.573425886,-4.754776337,-4.390139615,-36.8303435,-29.49765992,-122.0239908,-27.94391565,-109.4938866,-41.4075681,-37.19714449,-4.707925435,-1.581443594,3.764445194,1.403370263,4.921852245,0.905636636
4.96462152,5.716777047,6.940698673,0.763275857,-2.787487295,-4.076816369,-34.60284174,-25.60021848,-113.9919053,-25.42942007,-104.8197099,-42.46360825,-38.55195293,-5.976640757,-5.39320757,-0.042869579,-0.35217412,1.563566149,0.825552026
4.167634189,3.428479899,5.518081191,1.010169489,-1.089090092,-3.257835469,-30.86470158,-22.04792841,-105.8050752,-23.32631046,-98.81947089,-41.65288444,-38.1458516,-6.614452523,-7.600654371,-3.377059743,-1.449755159,-0.605592939,0.583869395
3.529507578,2.360722408,4.356644863,1.262243971,0.119299198,-2.413907573,-27.09639256,-19.58947547,-97.69855862,-21.77697067,-91.48819833,-38.61119713,-35.62961544,-6.596174837,-7.639052981,-5.241599306,-1.449089014,-1.173759498,0.251411339
3.396045532,2.655674389,3.863419017,1.42808686,0.833310601,-1.946102146,-24.64214329,-18.47465571,-89.82369473,-20.75832495,-83.45164645,-34.15531914,-31.83393192,-6.375290899,-6.155013446,-5.671033557,-0.671938434,-0.892203182,0.127758327
3.69608109,3.74245622,4.20257421,1.493389121,1.212996784,-1.933440509,-23.84256977,-18.25921776,-82.21807768,-19.92549082,-75.60700654,-29.67564673,-28.26699047,-6.513021591,-4.361118293,-5.406679581,0.138289813,-0.773724296,0.60276377
4.098130997,4.830509891,5.208778687,1.559473661,1.455336354,-2.161244724,-23.94973908,-17.99973638,-74.759904,-18.64764248,-68.58198805,-26.13842744,-26.15159024,-7.216063532,-3.120608184,-5.08896789,0.479725334,-1.062894937,1.831265709
4.321568547,5.467954671,6.420518426,1.760201239,1.673522635,-2.348288418,-23.77935239,-16.75618151,-67.19548199,-16.31652325,-62.33797519,-23.42283662,-25.61074846,-8.123040505,-2.449471296,-4.721766135,0.508390178,-1.028161865,3.455773985
4.32077885,5.744153427,7.262691621,2.134962119,1.848482414,-2.350727687,-22.51732208,-14.12266911,-59.31565588,-12.77851681,-56.18763775,-20.49783851,-25.55261835,-8.501716787,-1.732619751,-3.853792588,0.861542644,0.242799861,4.652661476
4.213286928,6.035996051,7.325211015,2.577117214,1.867328451,-2.179925884,-20.09263225,-10.4827239,-51.22446927,-8.594206622,-49.25885008,-16.32054971,-24.36067092,-7.72441733,-0.381926767,-2.240526529,2.052619809,2.785254626,4.578604079
4.070095108,6.565942997,6.585515666,2.905040461,1.61315948,-1.869329024,-16.98299068,-6.842640952,-43.49716855,-4.892883217,-41.14622431,-10.78392389,-20.95588996,-5.697278473,1.627959574,-0.316112298,3.959993704,5.433862022,2.971503321
3.800138464,7.158448282,5.411634143,2.989806369,1.048138148,-1.369109643,-13.78250314,-4.329000993,-37.0184248,-2.835447614,-32.33527068,-4.990145444,-15.53893187,-2.961697809,3.73433775,1.003345215,5.838851968,6.593630919,0.466990875
3.247389164,7.377516878,4.310946285,2.825723339,0.244253004,-0.601832636,-10.93705947,-3.60923666,-32.48678708,-2.966224196,-24.08528333,-0.622848567,-9.527704699,-0.41577325,5.21418928,1.035746957,6.837502381,5.496149187,-1.676863079
2.397757748,6.896843321,3.582187483,2.487338468,-0.648686569,0.372492157,-8.752885571,-4.528306151,-29.85515299,-4.84218769,-17.78124792,1.14352756,-4.738578702,1.155046346,5.675157977,-0.070777673,6.587889305,2.879200088,-2.343233433
1.477410991,5.776011722,3.12436898,2.020961149,-1.472419246,1.271899186,-7.465119353,-6.150986492,-28.12363527,-7.196696877,-14.12055998,0.427846281,-2.349700478,1.455101545,5.241080771,-1.411903502,5.406153614,0.488739294,-1.306572855
0.822975126,4.420864221,2.552424492,1.373564539,-2.124323076,1.725073307,-7.145120217,-7.210943671,-25.7460023,-8.591293017,-12.64828016,-1.4136657,-2.302003805,0.769009178,4.361031318,-2.037902832,3.985940195,-0.21909899,0.589975078
0.622619063,3.279925064,1.528985227,0.422785471,-2.582172395,1.550705624,-7.503612981,-6.766931027,-21.5061629,-8.207349714,-11.97031668,-2.616432887,-3.475306395,-0.247466821,3.461187615,-1.709898521,2.878046697,0.861807114,2.009736746
0.758638174,2.533220621,0.041269062,-0.917816852,-2.882188898,0.94564531,-7.877417317,-4.734627025,-15.3367962,-6.312367104,-10.55017066,-2.033635659,-4.461434318,-0.938166888,2.716058141,-1.069246862,2.179456713,2.492785728,2.068162666
0.901331373,2.009748673,-1.604521681,-2.600892865,-3.070601872,0.386106278,-7.581701811,-1.979879624,-8.494704144,-4.09285763,-7.602755584,0.287249909,-4.39985347,-0.988087181,2.048564439,-1.091094028,1.625488894,3.105836436,0.954166457
0.781891125,1.369402458,-3.055313712,-4.419096803,-3.16162568,0.281287341,-6.435500035,0.138342036,-2.878571819,-2.912021649,-3.513008448,3.263489114,-3.364302212,-0.58172482,1.269669627,-2.292910179,0.925022953,1.976035557,-0.257643542
0.410396993,0.385773331,-4.197031567,-6.053336907,-3.127494074,0.645724431,-5.00222215,0.566898824,0.14174566,-3.42213956,0.492374188,5.474417018,-2.136063594,-0.308917172,0.211481847,-4.347493918,0.015423738,-0.361033893,-0.482324878
