Channel 1 - P4,Channel 2 - O2,Channel 3 - P8,Channel 4 - T8,Channel 5 - C4,Channel 6 - Cz,Channel 7 - Fz,Channel 8 - F4,Channel 9 - Fp2,Channel 10 - F8,Channel 11 - Fp1,Channel 12 - F7,Channel 13 - F3,Channel 14 - C3,Channel 15 - T7,Channel 16 - P7,Channel 17 - P3,Channel 18 - O1,Channel 19 - Pz
60.42293547,65.39154229,43.18739883,32.07871482,48.66632634,40.16383081,6.685668255,27.43193547,44.91190066,41.99402472,47.79707581,58.74235435,48.08693403,54.81282645,46.7008166,57.92370291,64.4023842,33.62724315,44.61780186
58.63899106,59.76513209,32.56384296,15.05037294,39.02140186,28.23413507,-17.98051475,10.49725965,25.66131054,26.06251518,28.76749427,43.83907734,35.22324361,42.33817267,35.00598819,52.30958569,57.7180758,23.09536761,32.88597422
35.0534584,32.19948995,12.26420295,-6.496562277,16.2996227,7.809052711,-30.22612608,-6.641719862,3.472241491,3.896620375,5.010465675,15.32572317,12.00657564,15.51471056,11.02991017,27.85042908,30.09139903,5.746892924,10.76595806
3.805159572,-0.979388358,-6.290853255,-21.68763309,-6.281938313,-9.027883266,-24.27638755,-15.52935513,-11.79482762,-13.22822507,-12.33598326,-12.00615721,-8.964128433,-10.23865312,-11.63329929,-0.324808854,-1.471503648,-7.415175147,-8.597514872
-17.47591879,-21.55425811,-14.025568,-24.67123777,-17.01091429,-14.01088061,-6.897953952,-13.86661561,-15.57657265,-18.36549771,-17.1614976,-25.42619465,-17.86608968,-21.8751966,-21.75424762,-16.63871501,-19.3685245,-9.652073744,-15.36286854
-19.47931729,-21.45759878,-9.863065884,-17.81089449,-13.09948925,-7.744028982,8.269292939,-6.234763421,-10.76885464,-12.77836649,-11.72821785,-22.330136,-13.81031858,-17.0614177,-17.54711506,-15.32506509,-17.00267726,-2.561195565,-9.011058362
-6.357687899,-6.825125701,-0.296587674,-8.871188893,-1.273679117,1.967934422,11.01857909,0.125005419,-4.490441395,-3.783821173,-3.934723152,-10.67570314,-4.230999571,-4.322418636,-6.497642879,-2.888707081,-1.723498127,6.279339739,2.637917563
9.020799069,8.285736432,6.302861924,-4.759880738,8.300784674,6.712167308,1.506209392,0.901247103,-2.347639428,1.312827456,-0.999997992,-2.039190085,1.513597844,4.47645024,1.296653858,8.365555723,12.34129893,9.791632882,10.10044416
15.35189482,12.99059324,5.948042377,-6.772872401,9.652026735,3.631396405,-11.1547684,-2.661480426,-4.727948395,0.333253334,-4.508678656,-2.965934346,-0.881956401,3.098570789,0.730930314,10.08795301,15.35382333,6.684264845,9.167534193
10.57269774,6.794787109,1.146023078,-10.7221404,4.398969858,-3.394365241,-16.8458487,-5.770717829,-7.666390408,-3.287103274,-10.29477346,-11.09326602,-8.324099231,-5.434822197,-5.503231881,3.290915722,8.110681891,1.568013044,2.968657218
1.549615294,-2.015136764,-2.245705826,-11.26876918,-1.071538029,-7.854848914,-12.23503369,-4.630913024,-7.02706598,-4.399441822,-12.66207767,-18.37006381,-13.84055002,-12.67320449,-10.42897473,-4.154912442,-0.548869427,0.331685344,-1.781126517
-2.938720149,-4.47519516,-0.342547589,-6.584997782,-1.628979995,-6.19633531,-2.41239404,0.381390013,-2.257682471,-0.803578933,-9.199378564,-18.12056387,-12.61242468,-12.2172022,-9.097485915,-4.999871201,-2.16847046,4.962384028,-0.739971776
0.409889364,1.602429802,5.736410785,0.403698923,2.545377651,-0.328321877,4.244102812,5.359783941,3.313913037,5.165316935,-2.395670067,-10.12120749,-5.577230929,-4.60928225,-2.3921651,1.460841713,4.400690711,12.10013985,4.823945092
7.553656905,10.68649959,11.31654997,4.844469693,6.875328744,4.581092359,3.17106621,6.459778716,5.578322482,9.082698403,2.837892638,-0.032409845,1.924254923,3.911659197,4.403002338,9.599682282,12.93472689,16.21940105,9.758034084
11.55364755,15.09517775,12.43971736,4.142799851,6.917081361,4.706073979,-3.204180047,3.220312205,3.280151447,8.470054233,3.317036795,5.672394261,4.819695959,7.088169393,6.485487067,12.9267228,15.90241333,14.43925836,9.74822323
8.905544571,11.76539763,9.145866341,-0.074861906,2.308682935,0.552444138,-8.349024639,-1.146373469,-0.912384126,4.864771904,-0.089081121,4.741170581,2.208193034,3.676784136,3.462983259,9.708377419,11.0062882,8.820585497,4.860056577
2.251140066,4.443822483,5.106110767,-3.674178314,-3.153002833,-3.940624511,-7.561181554,-2.563208336,-2.68383797,2.287349699,-3.628659057,0.171133902,-2.526735714,-2.182962381,-0.832434431,3.997330183,2.704363703,4.383113724,-0.891439874
-2.451368304,-0.121722755,4.2106344,-3.692288453,-5.044907793,-5.034474227,-1.74054893,0.502471117,0.335355773,3.614226219,-4.026555829,-3.057759848,-5.026646342,-5.05100633,-2.069320957,1.617990296,-2.09714225,4.767303553,-3.195327232
-1.364447895,1.759524898,7.218061931,-0.764815173,-2.161217308,-2.260527694,3.916312304,5.864254908,6.651366936,8.043117316,-1.087570139,-2.33004242,-3.587943441,-2.864849606,0.805695185,4.951779931,-0.040390253,9.307893115,-0.984768068
4.066930816,7.755157531,11.28694902,1.642522174,2.640441898,1.576979199,4.70755961,9.502377784,12.11847993,11.74927231,2.488196916,0.873823832,-0.105731069,1.742717975,4.946871322,11.06983566,6.19740922,13.8557048,3.059856116
8.751453977,11.9264185,12.57698021,0.336876314,5.105386343,3.153922667,0.347536856,8.79477249,13.1291273,11.05721547,3.629098599,2.936519595,2.102351568,4.234485289,6.38739455,14.55112069,10.71965866,14.39605946,5.159557542
8.590679452,10.0566862,9.508422042,-4.913814157,3.252695953,1.531685033,-5.197361199,4.423288925,9.157376215,5.404967977,1.435043913,1.601723892,1.361233161,2.2824322,3.537282553,12.22290639,9.677768263,10.2540344,3.704114538
3.889567277,3.121442754,3.893049365,-11.31733592,-1.129924384,-1.272306117,-7.428625024,-0.432183098,2.780030102,-2.293132705,-2.355981646,-2.196647887,-1.144652171,-2.43379445,-1.668601053,5.631766914,4.296508307,4.278445765,0.3281581
-1.301342978,-3.921680406,-0.840609163,-15.47854449,-4.266769426,-2.318727686,-5.103452476,-2.71254907,-2.537649551,-8.005311384,-5.132439973,-5.577425796,-2.853347382,-6.060151501,-5.761047935,-0.675441752,-0.723748694,0.144094357,-1.889932609
-3.012011779,-6.618558138,-2.583300976,-16.10277797,-3.686478365,-0.401650837,-0.875589237,-1.671060099,-4.910794067,-9.57810123,-5.674077412,-6.58208192,-2.405461938,-6.105574884,-6.866239274,-3.229759595,-1.636579719,-0.681927609,-1.273958455
-0.763706286,-4.66539112,-2.04862226,-14.71302064,-0.117261026,3.019650497,1.434486719,1.003415814,-4.862854509,-7.955562334,-4.935264368,-5.901185065,-0.876662719,-3.451794327,-6.133321735,-2.359340621,1.181989792,0.278464082,1.120901125
2.387662038,-1.64126674,-1.684867355,-13.95794405,3.495659073,5.272683397,0.253186276,2.925121589,-4.198154246,-5.871771398,-4.822151951,-5.935781387,-0.601511633,-1.212198801,-6.323476841,-1.313790004,3.99383848,0.39844021,2.716316202
2.955392456,-1.38479408,-3.167401478,-15.15201487,4.74330863,4.854561027,-2.665424559,2.955596803,-4.204348997,-5.378752126,-6.226741827,-8.214139866,-2.77835392,-1.714507777,-9.019179455,-2.885111575,3.405922323,-1.438563714,1.87580674
0.283479699,-4.468078495,-5.80089603,-17.2110506,3.736552627,2.609225706,-4.192124296,1.781314472,-4.773814975,-6.352079885,-8.142217643,-11.67207782,-6.11936233,-4.440998964,-13.06050771,-6.750096909,-0.491420027,-3.894691908,-0.659578644
-2.977787602,-7.895562971,-7.213247896,-17.79389522,2.657585894,0.785642525,-2.786101817,0.908728578,-4.97012243,-7.05096439,-8.617165657,-13.44732487,-7.807914821,-6.703290772,-15.58299458,-9.893956829,-4.335449458,-4.622359162,-2.57603032
-3.468353161,-8.09367036,-5.619151158,-15.51443935,3.479618814,0.978649823,0.262816671,1.196541322,-4.227887591,-5.973121467,-6.631923929,-11.4895755,-5.919004029,-6.262739155,-14.6323105,-9.557097032,-4.676645956,-2.612457047,-2.172590598
-0.300978533,-4.317206092,-1.56993011,-11.24579961,6.031866725,2.838430997,2.277443315,2.244080426,-2.951613306,-3.25428648,-3.181394146,-6.602756199,-1.151687304,-3.403243795,-10.94938263,-5.887314536,-1.12218494,0.772302411,0.111362077
4.076614545,0.629025431,2.36317493,-7.441129938,8.140112649,4.597820666,1.796416854,3.003452623,-2.022049324,-0.462879941,-0.577651238,-2.016264261,3.655483535,-0.590357486,-7.338419288,-1.864281862,3.391482433,2.991663131,2.166041362
6.054105303,2.911003664,3.660198269,-6.15300043,7.622129987,4.779925526,-0.126892681,2.856410236,-1.820282547,0.846512511,-0.553353751,-0.770695037,5.805835982,-0.126100044,-6.233196843,-0.62582983,5.320824183,2.596307875,2.165197974
4.041584958,1.064744619,1.855714793,-7.488736556,4.272446042,3.464956711,-1.045387962,2.101764679,-1.796877598,0.422776872,-2.779706069,-3.144286739,4.863326584,-2.014553479,-7.656482825,-2.676192724,3.667604381,0.482942299,0.189335107
-0.188418479,-2.779509484,-1.211966059,-9.745385163,0.068018803,2.030475733,0.501860803,1.490849136,-1.020868897,-0.658843799,-5.052242533,-6.338785916,2.837970175,-3.989043065,-9.348995477,-5.494818421,0.722118148,-0.964971507,-1.919603597
-3.117663303,-4.851955475,-3.014820623,-10.96174299,-2.515869315,1.740710217,3.605052714,1.384874954,0.833041041,-1.122013577,-4.997870593,-6.719583267,2.358658498,-3.636628406,-8.874037046,-5.841284957,-0.166246692,-0.013282435,-2.270398707
-2.52708577,-3.034369582,-2.345940519,-10.46719439,-2.520894911,2.5709612,5.832671209,1.404990233,3.024402783,-0.642084099,-1.921847556,-2.751860357,4.441707603,-0.660766963,-5.780565868,-2.637647342,2.327888403,2.956188234,-0.612296504
0.740939791,1.440917497,-0.042143419,-9.155067467,-1.088305823,3.333936083,5.455738467,0.889596751,4.277628882,0.006740146,2.651921739,3.770752516,7.71481023,2.759853443,-1.939212405,2.132385114,6.362976708,5.911276233,1.501917164
3.75195989,5.263845607,2.032654548,-8.422476921,-0.2061675,2.903687061,2.966824584,-0.343105474,3.838681221,-0.160367476,6.102308911,9.137122422,9.636632858,3.815929499,0.149028273,5.216129773,8.669183364,7.043221574,2.165600557
4.158763867,5.989087841,2.678210831,-8.861315333,-0.856883309,1.326979873,0.536711925,-1.714860468,2.10834442,-1.331246561,6.550638652,10.52384609,8.569643764,1.458696587,-0.511594987,4.877464926,7.491357907,6.288363195,0.830242122
2.134149046,3.964709959,2.195377076,-9.874404078,-2.2494204,-0.221949552,-0.019237624,-2.386899563,0.291642963,-2.726773296,4.012901258,7.907402046,4.957139204,-2.749479001,-2.72081131,2.18061686,4.050436099,5.14647968,-1.251271826
-0.082165999,1.638822123,1.754511308,-10.4431961,-2.74554509,-0.560979462,1.14118779,-2.068030458,-0.613140106,-3.387244111,0.117990875,3.680998251,0.752964948,-5.995236145,-4.352144088,-0.261962021,1.278996752,5.063881224,-2.197444721
-0.437434963,1.077292415,2.05345221,-10.21315155,-1.52842925,0.392332934,2.143621015,-1.350185242,-0.593511989,-3.132554601,-3.204939813,0.524158982,-2.225468795,-6.515610797,-4.337972153,-0.794745474,1.089242309,5.962051451,-1.189725501
1.038991874,2.076038945,2.600590203,-9.842215796,0.564852208,1.569404482,1.231619973,-1.222448116,-0.516593727,-2.773935329,-4.973902898,-0.59668565,-3.543988673,-4.835497201,-3.55439595,-0.134486141,2.704910731,6.308484878,0.832229342
2.40739875,2.563430758,2.273455422,-10.31293432,1.799361789,1.78593454,-1.539875081,-2.173802783,-1.281991838,-3.368854525,-5.474671048,-0.745156583,-4.046978558,-2.987185181,-3.864700005,-0.455005613,3.530527824,4.653856605,2.050616511
1.792258428,0.793673436,0.556960681,-11.89378404,1.16385762,0.87669339,-4.287686481,-3.677344792,-3.003744022,-5.195513887,-5.634171282,-1.65170932,-4.724939907,-2.573014164,-6.269988987,-3.088847351,1.677487139,1.179495359,1.395069537
-0.746529919,-2.806925734,-1.768393677,-13.74366461,-0.639729268,-0.136724916,-4.934111359,-4.516273967,-4.909919686,-7.374936188,-6.125615889,-4.040271381,-5.722523461,-3.467002659,-9.885251775,-7.045522636,-2.213877417,-2.220343738,-0.538041498
-3.189764242,-5.887900856,-3.17832969,-14.53868909,-1.741047777,-0.000525698,-2.987768395,-3.683269891,-5.981515294,-8.485772073,-6.926867411,-7.079002556,-6.370642359,-4.232691608,-12.65496483,-9.748879452,-5.511441972,-3.452479199,-2.047463148
-3.376446134,-6.271305659,-2.709176428,-13.56052262,-0.696351083,1.580300938,0.100159986,-1.1169891,-5.726662166,-7.648720499,-7.535024597,-9.246470786,-6.073235823,-3.705542131,-13.12305464,-9.324865499,-5.953164562,-1.999487468,-1.820897005
-0.96569958,-3.933747333,-0.816805757,-11.28242567,2.267280641,3.612133525,2.238177963,2.278565878,-4.442096403,-5.176271774,-7.48668909,-9.664896903,-5.07837482,-2.167899127,-11.64063961,-6.339009088,-3.649119647,0.632017682,-0.028924422
2.249420088,-1.037612392,1.003949022,-8.962291266,5.41540899,4.644713639,2.414687721,5.262215115,-2.832218965,-2.291961185,-6.694634692,-8.68788353,-4.33429417,-1.024063306,-9.946003672,-3.383141589,-0.910475954,2.194147372,1.898584816
3.930153075,0.009767796,1.502208143,-7.639799448,6.884733856,4.00762824,1.315477343,6.971735477,-1.421152437,-0.218988822,-5.40268992,-7.352234933,-4.559972925,-1.349360156,-9.543402715,-2.860991497,-0.100952105,1.579550333,2.544804519
3.20862519,-1.316034382,0.704598167,-7.427243171,6.064414776,2.342927806,0.415765499,7.212304166,-0.297373159,0.586129502,-3.932976744,-6.361789653,-5.444244322,-2.747593364,-10.37236662,-4.939065533,-1.496849285,-0.338315027,1.675612623
1.315487514,-3.272803395,-0.213315577,-7.663901209,3.852403164,0.983741514,0.524574894,6.26260267,0.666897805,0.495956101,-2.512648252,-5.59757684,-5.791126812,-3.636288954,-10.95371987,-7.46355187,-3.098156253,-1.592520214,0.324171874
0.312944872,-3.525826368,-0.070710595,-7.701911461,1.703532458,0.77429465,1.167917308,4.546898743,1.45427038,0.16321906,-1.287295554,-4.529360772,-4.55113454,-2.71491172,-9.835971803,-7.876721834,-2.531971529,-0.889477428,-0.187719562
1.156667463,-1.318615047,1.215825204,-7.55091809,0.414585199,1.403013786,1.297423549,2.50823119,1.825457317,-0.066394527,-0.39938956,-3.002424052,-1.837924502,-0.244491335,-6.997873963,-5.408483024,0.707938041,1.327031207,0.637692207
2.875615075,1.842693489,2.567673692,-7.798859905,-0.292400753,1.813957189,0.51202774,0.673106951,1.607506228,-0.287780827,0.026491259,-1.55406984,0.998217075,2.077789802,-3.931960275,-1.633198543,4.721571154,3.403610773,2.183555981
3.580155888,3.585431637,2.75790821,-8.934347595,-1.151478212,1.26284294,-0.47557208,-0.372901984,1.011712919,-0.719507895,-0.008771314,-0.933724919,2.355340188,2.579073099,-2.346058213,1.013189677,6.839981034,4.032442976,3.398456439
2.312404739,2.837316653,1.566542959,-10.75170251,-2.416609893,0.015736506,-0.604930308,-0.2779295,0.585384017,-1.351289366,-0.32759119,-1.313623133,1.613336105,1.106107687,-2.662012819,1.356087584,5.954475386,3.382520281,3.732444766
0.000497944,0.77487924,0.022282011,-12.42159807,-3.542713855,-0.944437884,0.304576009,0.699135904,0.759784783,-1.934644015,-0.690985217,-1.992230697,-0.412276277,-0.794261237,-3.653867941,0.352742825,3.455993366,2.809355533,3.466880516
-1.364256392,-0.294721425,-0.491154432,-13.17290337,-3.754918825,-0.898438633,1.128262769,1.634156149,1.382183865,-2.298915269,-1.00306758,-1.923657144,-2.156027593,-1.187544951,-3.534482112,0.022404121,1.976503923,3.482004091,3.218460381
-0.557128021,0.929035623,0.537330979,-12.95684839,-2.90157069,-0.117241192,0.331702092,1.414683479,1.691290525,-2.632283653,-1.399943276,-0.617654354,-2.531003575,0.592092087,-1.519009637,1.507347838,3.088736179,5.244170141,3.186987589
1.736654531,3.548478041,2.28275148,-12.47861233,-1.725475978,0.359697335,-2.574946361,-0.518972986,0.827379206,-3.406124835,-2.104843427,1.402179961,-1.686716997,3.383319978,1.496263878,4.055393358,6.00879303,6.7673294,2.917260792
3.521477875,5.307361236,3.300063414,-12.55922767,-1.25991612,-0.299447229,-6.383841682,-3.741642381,-1.506370487,-4.980533949,-3.162356499,2.993190991,-0.733063535,5.193353341,3.688921516,5.794637351,8.397990135,6.829801935,1.805799417
3.294723417,4.69214645,2.793137222,-13.39723667,-1.898611701,-1.887192184,-9.02202738,-7.102981349,-4.76084889,-7.245906624,-4.308441,3.282083685,-0.752847249,4.843420966,3.793621348,5.509147128,8.473077149,5.511899725,-0.157412417
1.421265823,2.3846023,1.332449414,-14.38747363,-3.007022263,-3.245256603,-9.205522899,-9.503414531,-7.852118559,-9.627794548,-5.128775234,2.267337699,-1.97074231,2.835406255,2.027130514,3.750996844,6.513774691,4.188202525,-2.159897419
-0.161593068,0.747514961,0.408008165,-14.65551322,-3.448800648,-3.216903249,-7.469999108,-10.57171167,-9.79770454,-11.45038793,-5.387091308,0.657725178,-3.720553849,0.756135475,-0.266638742,2.297783165,4.471158009,4.319526439,-3.120803971
0.354514392,1.792849384,1.209991943,-13.83662688,-2.564460615,-1.627118298,-5.653871315,-10.71332044,-10.1843449,-12.34196947,-5.224735824,-0.81655758,-5.116035066,-0.158489723,-1.824160568,2.512228583,4.119881802,6.151641398,-2.563183041
3.053401355,5.422863901,3.666496397,-12.42381876,-0.731872147,0.569744173,-5.276732275,-10.54362362,-9.181731994,-12.35799128,-5.029487032,-1.935589806,-5.758477614,0.010654554,-2.405609495,4.137765347,5.470682262,8.49968586,-1.031178062
6.199107886,9.462514641,6.507187993,-11.39271634,0.977917829,2.093426084,-6.236668661,-10.24382943,-7.228881595,-11.77457497,-5.071700471,-2.900321169,-5.878678425,0.171409228,-2.703045421,5.598563736,6.849719085,9.78397114,0.324018439
7.687568435,11.39751408,8.23258676,-11.42630645,1.725999664,2.378893127,-6.958617128,-9.412157031,-4.742355293,-10.78570868,-5.231466395,-3.804454832,-5.887278295,-0.5922345,-3.441410568,5.443780162,6.496939511,9.331327736,0.634394414
6.741523983,10.2576168,8.142914611,-12.37480546,1.590106033,1.959377056,-5.829195764,-7.50686116,-2.052433375,-9.366204356,-5.069696635,-4.281947865,-5.836197883,-2.109487997,-4.606844635,3.536367032,4.17709487,7.732267433,-0.075334398
4.387284351,7.041159217,6.617871826,-13.35553447,1.431171951,1.903380523,-2.622287926,-4.433638854,0.539732335,-7.352541867,-4.181382074,-3.743812344,-5.311871143,-3.32077916,-5.526742676,0.892714279,1.346154278,5.9511516,-1.042449703
2.38235566,3.448803626,4.542580498,-13.3640746,2.102799633,2.849910704,1.33745838,-0.7172815,2.821565829,-4.587780848,-2.501489756,-1.988234003,-3.824603493,-3.340934529,-5.649061664,-1.587004185,-0.223787571,4.080691765,-1.491493393
1.63049522,0.203950848,2.486489383,-11.90192967,3.719055889,4.499992617,4.370530125,2.890445151,4.888757849,-0.982613382,-0.274171536,0.462253066,-1.287818674,-2.337470365,-5.181268772,-4.172784279,-0.058915789,1.000564053,-1.272019973
1.505956586,-3.470011354,0.355910221,-9.201319626,5.591088302,5.96653356,5.885478354,5.974221895,7.270078179,3.478687296,2.278109742,2.726689013,1.87090647,-1.373317418,-4.900703582,-8.016023744,0.639480249,-4.615904912,-0.891685095
0.617455556,-8.783343762,-2.272696586,-6.008367159,6.817628527,6.602698838,6.775916083,8.641866851,10.65928627,8.645685179,5.238129886,4.37801454,5.044744075,-1.359212899,-5.280321828,-13.69820594,0.166509293,-12.77312075,-1.001590443
-1.769414874,-15.78025725,-5.552621758,-3.198114588,6.960523991,6.533249295,8.459313809,11.16264802,15.28901897,13.99418043,8.894607661,5.939303866,7.880692723,-2.113155597,-5.785189466,-19.98948898,-2.066073135,-21.49343794,-1.851694049
-4.973783543,-22.74098269,-9.083863583,-1.493309296,6.23707431,6.434814039,11.47238173,13.43382397,20.40836868,18.50944431,13.27837458,8.496531761,10.39525338,-2.440429539,-5.097375768,-24.12624335,-4.934650082,-27.73899639,-3.181085446
-7.454340535,-27.18792002,-12.15517845,-1.331996379,5.161573481,6.82082861,14.90148831,14.84186441,24.40384959,20.93687881,17.73905535,12.63761718,12.69033493,-1.208419751,-2.188827491,-23.6031693,-6.542674889,-29.28458788,-4.542696161
-8.108161403,-27.63840238,-14.20830155,-2.765239378,4.065420304,7.523366923,17.12937079,14.71873926,25.66368179,20.42244797,21.01697948,17.60320347,14.58503573,1.537179154,2.652058799,-18.07839588,-5.814490873,-26.08150841,-5.660564174
-7.10898792,-24.59272281,-15.06719371,-5.339014423,2.961453096,7.846301447,17.18142239,13.0042653,23.6456708,17.15913137,21.88944782,21.46728299,15.55977169,4.433508122,7.766983679,-9.784009718,-3.317866372,-20.06612072,-6.4589725
-5.573685406,-19.96027283,-14.78410864,-8.106075354,1.805647254,7.223441321,15.45303111,10.47472921,19.33351658,12.4890989,19.96735609,22.35073995,15.10501751,5.80121296,11.17119375,-2.043164997,-0.643279231,-13.65739658,-6.810697598
-4.458997003,-15.51820147,-13.37557475,-9.952756632,0.787470463,5.756835098,13.22068835,8.250236998,14.66014548,8.22621791,16.02764379,19.77897461,13.17450182,4.942938505,11.88070421,2.924521947,1.010216289,-8.227313819,-6.387250388
-3.77076487,-11.78996378,-10.81595518,-10.19137179,0.271605526,4.145373928,11.47245131,6.951765281,11.27195716,5.575161897,11.58394905,15.10196332,10.33185717,2.643312674,10.46481934,5.157203175,1.723010163,-3.733039649,-4.898095613
-2.804625454,-8.240787924,-7.334575782,-9.050189899,0.413677406,3.092048771,10.1790423,6.240800399,9.552593898,4.424566047,7.983749712,10.60051042,7.446127107,0.479585611,8.422213863,6.24201108,2.460234563,0.397204765,-2.560672581
-1.11179596,-4.420753408,-3.667188137,-7.628246183,0.863827773,2.749606622,8.645249224,5.18166838,8.636509273,3.585612674,5.692151673,7.939024745,5.179537512,-0.428723999,6.954358847,7.518005818,3.867317565,4.127010707,-0.301566935
0.816213981,-0.838554357,-0.872608747,-7.219931617,0.941582595,2.700241965,6.517288768,3.149960333,7.347280265,1.833000585,4.26442582,7.136288777,3.666383765,-0.171691104,6.158623842,8.828537895,5.467269332,6.553696953,0.665627758
1.86562353,1.315150545,0.278665853,-8.425402228,0.216607418,2.447695502,4.393091607,0.50193273,5.248709622,-1.054229911,2.950005844,6.794462772,2.584090142,0.254702651,5.2279606,8.864086292,6.049114333,6.752654325,-0.313958261
1.354387292,1.312887114,-0.128941521,-10.70704255,-1.010054909,1.927493562,3.38114689,-1.609476627,2.932108085,-4.090068536,1.379187945,5.324339596,1.476382351,-0.076220699,3.351520796,6.65852353,4.876576809,4.867521228,-2.732129489
-0.1919683,-0.24947907,-1.171596643,-12.76934297,-1.81558764,1.550490727,3.996115248,-2.159505001,1.340963854,-5.894917814,-0.230941714,2.163108922,0.026477598,-1.284231815,0.461466934,2.780421009,2.547159892,2.331516373,-5.129076363
-1.344445165,-1.785211406,-1.767322716,-13.51217094,-1.350652829,1.759509569,5.471030524,-1.146948867,0.775939874,-5.868615014,-1.455875366,-1.918642095,-1.88226844,-2.769509853,-2.785176533,-0.911103675,0.641387222,0.898376774,-6.063053252
-0.964905805,-2.018462244,-1.512490598,-12.83849163,0.428289326,2.547103868,6.233904634,0.317246984,0.502540406,-4.753502584,-2.210120523,-5.523021855,-4.220975109,-3.901543802,-5.646377459,-2.734320378,0.428448184,1.275231627,-5.127322919
0.754922157,-1.081195031,-0.972651085,-11.68961339,2.622638922,3.411667365,5.224365177,0.839544472,-0.645243605,-4.102955728,-2.913676468,-7.652121263,-6.794692119,-4.56541693,-7.867972339,-2.541039358,1.788312619,2.56532604,-3.209405228
2.37267618,-0.362988429,-1.149126239,-11.28052479,4.005668991,3.800048083,2.899733604,-0.171635937,-3.157283126,-5.064233034,-4.102398239,-8.222000187,-9.124462972,-5.051984999,-9.647131392,-1.727919842,3.340060915,3.058490399,-1.771492654
2.386204134,-1.186180841,-2.53859194,-12.1345881,3.906533232,3.611524137,0.981417301,-2.050654454,-6.204175178,-7.448390338,-5.839257844,-7.782976495,-10.4411493,-5.491347242,-11.09783575,-1.886629078,3.682904432,1.738861458,-1.721052192
0.537065903,-3.46352579,-4.569656989,-13.66264657,2.651450248,3.272001079,1.073486214,-3.4149077,-8.07507528,-9.828956285,-7.496459683,-6.870422427,-10.00518325,-5.505583965,-11.83987017,-3.299574817,2.649268631,-0.756572443,-2.771083953
-1.89506619,-5.553637487,-5.906008047,-14.58721869,1.225718578,3.29260223,3.290954509,-3.254286468,-7.419334772,-10.58337438,-8.170196798,-5.643824808,-7.672809819,-4.52653393,-11.20608309,-4.623220649,1.454953949,-2.541404784,-3.776723899
-3.068199085,-5.493283815,-5.390937308,-13.8532229,0.474076244,3.722226557,6.063952191,-1.698863441,-4.328849912,-9.054545264,-7.422597163,-4.083204773,-4.290141539,-2.514615891,-8.926715901,-4.043025759,1.618913906,-1.914889,-3.727815697
-2.00296059,-2.577892892,-2.881753339,-11.32721342,0.517544524,4.021536446,7.300221462,0.109605646,-0.394429321,-5.956571665,-5.719469355,-2.41770352,-1.47234618,-0.33098797,-5.625307108,-0.888243338,3.617153522,1.345018805,-2.557405517
0.720714212,2.042461679,0.671420303,-7.812427895,0.832796639,3.509207556,5.952600837,0.881286778,2.332284626,-2.787094552,-4.149526122,-1.234362904,-0.731672487,0.73677243,-2.570935197,3.693795426,6.451770973,5.843436523,-1.120981271
3.514857217,6.225915922,3.915654543,-4.467384838,0.844890594,2.0026104,2.733028793,0.068298225,2.695554968,-0.781873387,-3.604580614,-1.057002641,-2.469588957,0.00711515,-0.801410413,7.567372879,8.481141624,9.612029202,-0.422424364
5.038353361,8.391235793,5.961125821,-2.13189807,0.463219575,0.079580796,-0.525403507,-1.864709868,1.118545349,-0.227264072,-4.07093597,-1.755720182,-5.572022597,-1.891354585,-0.347241631,9.207878269,8.741811442,11.4219501,-0.782380374
5.077509197,8.46032116,6.756253368,-1.02704046,0.099569853,-1.292560166,-2.230469986,-3.881299218,-0.828078822,-0.558593254,-4.621661182,-2.393428042,-7.993882574,-3.344337203,-0.259051771,8.719384372,7.599664111,11.3424465,-1.645774469
4.397454878,7.506515032,6.786381274,-0.907490308,0.212323095,-1.465620105,-1.978758179,-5.081139861,-1.569801857,-1.005545586,-4.142842532,-1.78323177,-8.012901976,-2.945987217,0.538159494,7.484408566,6.222697027,10.26074577,-2.138833252
3.852723514,6.586163452,6.488967149,-1.386871396,0.843169716,-0.572465882,-0.444887392,-5.139388303,-0.518066474,-1.175706273,-2.228953837,0.601433382,-5.315533991,-0.617140528,2.27751504,6.860886672,5.442973505,8.963660484,-1.842981731
3.642130776,5.881602473,5.94552619,-2.125334563,1.577941404,0.622300547,1.454177045,-4.285227658,1.733527298,-1.154030666,0.462313365,4.090468107,-1.170422114,2.294254507,4.109768649,7.105304789,5.085099332,7.639607109,-1.105878765
3.344241317,4.874757906,5.059921273,-2.822604999,1.935614752,1.326380887,3.232096923,-3.026700146,3.989095275,-1.194686887,2.676312772,7.141457325,2.407464471,4.0444503,4.812703575,7.39632043,4.342651169,6.133463612,-0.656392142
2.571000625,3.237854521,3.931889316,-3.198308693,1.789817414,1.263604199,4.782827825,-1.925879566,5.259112276,-1.411379409,3.477948167,8.342998978,3.892024572,3.820555792,3.84508552,6.799257388,2.773306227,4.527529271,-0.911072682
1.505383369,1.457962806,2.965130847,-3.117279012,1.425987136,0.744564454,5.865109646,-1.510774965,5.222784644,-1.766310682,2.902490874,7.367788914,3.038588387,2.279253559,1.832002905,5.205566941,0.907496181,3.348232239,-1.606399977
0.763662654,0.518125057,2.554957655,-2.777403129,1.212893771,0.289167292,5.861067986,-2.177603906,4.162397379,-2.28136306,1.854969563,5.170637314,0.780550683,0.88923877,0.058455701,3.396735932,-0.149173446,3.133269449,-2.068592981
0.736883754,0.92209173,2.665276298,-2.703322414,1.242473334,0.190192596,4.224429547,-3.964794309,2.606266813,-3.149299708,1.374647529,3.299287244,-1.554544271,0.679664514,-0.590897649,2.250102445,0.234079685,3.7863096,-1.85144873
1.108202102,2.039044126,2.762373243,-3.404500872,1.304456313,0.386793281,1.240145283,-6.330260769,1.029642473,-4.546479229,1.861383446,2.842137701,-3.071289022,1.468203688,-0.33096199,1.893510533,1.510402397,4.416108275,-1.153920944
1.084638109,2.490888864,2.254474975,-4.886871584,1.20982686,0.674657801,-1.738465537,-8.229026674,-0.233199703,-6.298453457,2.846504793,3.766848518,-3.640325212,2.179928076,-0.222430078,1.616143614,2.309621145,3.93566694,-0.641624676
0.176552714,1.330416107,1.084192943,-6.434700733,1.11249775,0.965160101,-3.028328115,-8.623183236,-0.957718102,-7.757907996,3.426345535,5.062850952,-3.672458672,1.898029768,-1.20698351,0.597825802,1.59413239,1.973044813,-0.834160121
-1.212130843,-1.028227013,-0.081218178,-6.942750149,1.464792431,1.31150823,-1.874022557,-7.157089203,-1.028463975,-8.096652396,2.962802926,5.49674485,-3.67371727,0.669279618,-3.283906712,-1.251736344,-0.395204893,-0.702503486,-1.603127583
-1.994807534,-3.013795143,-0.301633703,-5.643801461,2.600609143,1.709191717,0.825335642,-4.476502544,-0.489710927,-6.830189661,1.502117977,4.399560808,-3.964388753,-0.648088661,-5.536911798,-3.138989387,-2.263319851,-2.666440335,-2.227557824
-1.30070123,-3.140497663,0.872175348,-2.706388752,4.326669724,1.939691736,3.041603294,-1.860467118,0.455496564,-4.153396705,-0.344354389,1.985199837,-4.668501877,-1.316855947,-6.959011587,-4.061307785,-2.583167021,-2.889992568,-1.974265267
0.710012652,-1.253910017,2.963299464,0.782407797,5.936060354,1.689761242,3.094283746,-0.370554919,1.56376753,-0.8082459,-1.859869477,-0.886061273,-5.795194658,-1.545990811,-7.320992913,-3.687126521,-1.06477304,-1.512649243,-0.729310305
2.855506787,1.295031766,4.856156115,3.478229219,6.688638091,0.879871489,0.937965847,-0.153109016,2.702923211,2.39440183,-2.599656066,-3.203711837,-7.206093003,-2.419248458,-7.301308653,-2.641801942,1.22135415,0.28644753,0.831091462
3.797628976,2.712633382,5.596138503,4.60509822,6.36605986,-0.120475742,-1.780385652,-0.449995924,3.87579829,4.989043167,-2.426488427,-4.194855261,-8.479916808,-4.948530363,-7.759618552,-1.955428247,2.732421853,1.193932076,1.666220347
3.041198052,2.164702564,5.05389621,4.333111669,5.417082718,-0.654748832,-2.951789693,-0.308073339,5.06577494,6.888085059,-1.309580594,-3.453057035,-8.8940945,-9.070907559,-8.804622356,-2.186605381,2.666411314,0.69463818,1.06715723
1.22900757,0.344177584,3.923295351,3.459231684,4.560238724,-0.244620802,-1.543451392,0.604232654,6.05478417,8.094024572,0.792170841,-0.917492619,-7.707923029,-13.48715046,-9.505659023,-3.002166945,1.472396783,-0.696316953,-0.882123596
-0.480516225,-1.228173072,3.091823862,2.70074963,4.192057973,1.018716273,1.748104119,1.753247576,6.43954791,8.453380676,3.76917082,3.118252582,-4.661979012,-16.53175599,-8.55338087,-3.547398124,0.288513051,-2.00612559,-3.374083067
-1.366752021,-1.507969899,2.945902315,2.197399733,4.119476795,2.504537935,5.152835259,2.253959147,5.909894869,7.748272278,7.070349892,7.93267972,-0.348924014,-17.38687642,-5.356984426,-3.219425792,-0.117632307,-2.621495428,-5.377218175
-1.589881612,-0.691770158,3.19694694,1.600626695,3.836569791,3.487928731,7.150586929,1.673390414,4.583431422,6.053638292,9.652258672,12.38659835,3.884423271,-16.65884286,-0.673285669,-2.125282178,0.056924587,-2.649535922,-6.200413839
-1.785810484,0.171379428,3.328958169,0.607309522,3.071011771,3.644572792,7.368093432,0.417847871,3.076858405,3.978883218,10.4030506,15.19005965,6.543783907,-15.86503379,3.773719898,-0.846791377,0.001749149,-2.586649185,-5.78337671
-2.262404967,0.291310855,3.214068164,-0.57699708,2.088001064,3.193512818,6.448350512,-0.616418598,2.177373707,2.474051033,8.865468853,15.41997416,6.770848656,-16.26702367,6.414176012,0.198732188,-0.811316787,-2.68654973,-4.609527396
-2.59349774,-0.077476777,3.30961776,-1.272937757,1.473893315,2.60813851,5.22477992,-0.79074764,2.321294015,2.272744828,5.738766347,13.04014951,4.816805025,-17.98627301,6.840231735,1.150257948,-2.0589508,-2.651273373,-3.371096029
-2.007247183,0.112840538,4.24600541,-0.835285341,1.60746939,2.195596729,4.056031646,-0.192155736,3.283220942,3.403864475,2.683974636,9.073928354,1.90141798,-20.06134804,5.950127208,2.461593045,-2.849021023,-1.930872449,-2.603706001
-0.201461656,1.662790732,6.175177544,0.805257716,2.313045983,1.931644394,2.869903958,0.574531256,4.331904882,5.184589036,1.412159203,5.224127259,-0.463454801,-21.32343149,5.161130936,4.266553059,-2.568185788,-0.341791952,-2.457019258
2.197823387,4.252748163,8.473247029,3.027332747,3.015107459,1.659637013,1.689818377,1.031984164,4.730083909,6.709064973,2.582917394,3.054752307,-1.290101535,-21.34521466,5.321221025,5.98060939,-1.487385196,1.577444979,-2.672168416
4.002997563,6.533151074,10.08467528,4.921184463,3.247224961,1.394451265,0.945624849,1.276236548,4.177051937,7.429150295,5.258358752,3.146829073,-0.617830804,-20.73715873,6.124588292,6.562015294,-0.557151894,2.818421065,-2.758628365
4.370618011,7.112232599,10.23929443,5.870867217,3.046400551,1.37511257,1.144825864,1.795535689,2.865922099,7.369477535,7.349107197,4.720830439,0.548922695,-20.64230538,6.402268964,5.250977614,-0.581971114,2.575305918,-2.297295748
3.459627119,5.597925713,8.959506074,5.862214564,2.883943659,1.781511485,2.207031779,2.855809615,1.185286416,6.876095378,6.843468921,6.005688635,0.810494384,-21.89637195,5.003174415,2.164889884,-1.530850411,0.796063953,-1.227943942
2.265767624,2.832937671,6.968177664,5.33114718,3.224696879,2.405458884,3.206755705,4.091074674,-0.594508065,6.225946396,3.074425608,5.223845931,-0.849290552,-24.49041808,1.609866657,-1.750489029,-2.603789986,-1.811989031,0.052986384
1.782946963,0.183908537,5.120437562,4.759568651,4.146971721,2.664850591,2.957933033,4.768481926,-2.337288352,5.514605048,-2.771244252,1.676462504,-4.45840168,-27.6406208,-3.028494253,-5.353457938,-2.972686591,-4.287762109,0.885522623
2.226000093,-1.45925342,3.857295312,4.393772629,5.374494607,2.046906677,1.064997914,4.547886668,-3.783090042,4.906630969,-8.224385367,-3.708824233,-8.927467649,-30.28507459,-7.502462422,-7.978413327,-2.504070463,-6.006318084,0.750363066
2.969700404,-2.140914752,3.102580504,4.280509853,6.652383723,0.629408635,-1.480338291,4.024257193,-4.35881778,4.906619209,-10.83479183,-8.749796067,-12.49083868,-31.59614715,-10.44370809,-9.621448837,-1.806602123,-6.916641395,-0.37098155
3.204192374,-2.469285603,2.59684384,4.486089584,8.051460615,-0.819135415,-2.803469227,4.451641509,-3.376096226,6.227573556,-9.425147556,-11.15697061,-13.54425801,-31.23135867,-11.0917264,-10.58517901,-1.582042775,-7.328027088,-1.946473579
2.680409429,-2.870437188,2.285078984,5.2021708,9.854032749,-1.339146629,-1.487198194,6.751621686,-0.56313445,9.215332605,-4.599216995,-9.815475081,-11.47850886,-29.32908593,-9.491202728,-11.00071989,-1.900737135,-7.510442836,-3.216642259
1.879989995,-3.184242043,2.3796751,6.588815864,12.10429451,-0.525010665,2.282131677,10.59882334,3.504097441,13.29242588,1.700411729,-5.424436696,-7.053235338,-26.40095693,-6.341349651,-10.69296872,-2.083915124,-7.465265246,-3.670128842
1.503177651,-2.921983419,3.071752279,8.502726615,14.28365008,1.105302287,6.715207326,14.41184311,7.519074263,17.00922164,7.23120349,-0.075826641,-2.055776923,-23.20174505,-2.653429491,-9.470429148,-1.309458781,-7.010307992,-3.32270595
1.793685376,-1.861589346,4.21478755,10.40913076,15.51154788,2.46642457,9.624624611,16.37300511,10.14311083,18.8476688,10.45936497,3.982912553,1.614934022,-20.53258605,0.629354164,-7.494087409,0.608393841,-6.035385408,-2.602516427
2.338952626,-0.371295126,5.3254351,11.62767406,15.19670932,2.734236539,9.920725892,15.72875325,10.81418923,18.25476777,11.04450949,5.621275042,2.932625707,-18.94678554,2.939189523,-5.317194291,2.973701119,-4.674590261,-1.964531109
2.508823854,0.843322358,5.930397624,11.75171848,13.6005817,1.974485373,8.255823637,13.33767515,10.05230568,16.08635243,9.689869575,5.322573347,2.210013586,-18.48063821,4.2273261,-3.528727275,4.721983414,-3.264781856,-1.57405849
2.087524726,1.308454644,5.944714796,10.90084307,11.77429747,1.043711953,6.372735385,11.00840192,9.01780272,14.03485523,7.597929247,4.619199005,0.765017779,-18.63346088,4.877385527,-2.330722837,5.23839714,-2.160963064,-1.317159817
1.484214445,1.126267917,5.724779016,9.593645606,10.83689838,0.83875247,5.741567381,10.14288928,8.666861034,13.4190715,5.889054925,4.905014883,0.015634276,-18.70159953,5.409000175,-1.446087725,4.769954477,-1.568186988,-1.082298029
1.324457223,0.800832238,5.738656457,8.35320673,11.14833794,1.522715615,6.572251724,10.75864529,9.156679228,14.26105463,5.22696547,6.473849296,0.601015444,-18.28529551,6.125572338,-0.433365566,4.102785502,-1.480537469,-0.997035306
1.82430402,0.758986477,6.154247551,7.386103968,12.06624805,2.378283228,7.892497863,11.63820819,9.920967769,15.37821455,5.70308704,8.432874695,2.085735376,-17.59100103,6.930088035,0.90164818,3.834388965,-1.702717457,-1.345201829
2.560097012,1.045627823,6.72469979,6.598462131,12.51100736,2.410077613,8.475954543,11.42507495,10.27151752,15.41127447,6.916774179,9.483361995,3.382420281,-17.26171189,7.443558514,2.383165949,3.906840327,-1.897481402,-2.210151477
2.870637412,1.456440672,7.07360577,5.898682554,11.8829028,1.189392461,7.778257292,9.736632112,9.974967428,13.95376804,8.185832463,8.941873961,3.537175199,-17.83445729,7.344577524,3.714714225,3.791534595,-1.660576976,-3.195734832
2.519500724,1.908073611,7.105737434,5.471893268,10.56884329,-0.75848114,6.1715868,7.410475022,9.343087269,11.87877713,8.851149475,7.246478603,2.319186302,-19.24661706,6.668833881,4.807803868,3.102726184,-0.668515144,-3.564762001
1.980155227,2.60601499,7.143371995,5.737310965,9.619395298,-2.328228488,4.45606906,5.766425194,8.848426433,10.63078565,8.610642902,5.622804513,0.264371893,-20.79984332,5.823830837,5.824195473,2.035256627,1.112608936,-2.778719393
2.041975981,3.792795379,7.634851406,6.994136119,9.878658499,-2.641339467,3.21499151,5.574700317,8.688320051,11.09458757,7.736813542,5.216203448,-1.752215196,-21.63046934,5.292403393,6.872389835,1.21065995,3.283506776,-1.023035829
3.06711646,5.319322555,8.679674592,9.058627464,11.3031432,-1.629400986,2.579643328,6.591337278,8.703203817,12.96248118,7.002605171,6.343391047,-3.039967825,-21.32307572,5.249624418,7.682199519,1.083561922,5.094210743,0.766350796
4.571683947,6.513905265,9.801348797,11.22653917,13.02321412,0.029012755,2.467598234,7.956370018,8.658692097,15.05867358,7.258269716,8.351409266,-3.364806189,-20.18852171,5.394651857,7.650647408,1.474975274,5.78599421,1.491369099
5.535561088,6.577047191,10.20241065,12.63149593,14.05290661,1.481047961,2.887306037,8.987997949,8.53031362,16.27062204,8.839011934,10.08007384,-2.896118454,-19.00588835,5.135909689,6.314149987,1.682900548,5.015430253,0.691214426
5.2008742,5.223486282,9.32688627,12.74329794,14.01474117,2.257686336,3.908178639,9.62366045,8.453331179,16.28176375,11.17258186,10.5205588,-2.007308896,-18.45859767,3.99765169,3.864527615,1.089638187,3.076609296,-1.075450027
3.681753172,3.011632364,7.292713814,11.64305977,13.27953416,2.390852589,5.32812906,10.16927982,8.390348634,15.56005993,12.91432328,9.234127139,-1.135964041,-18.71414492,1.956062227,1.217009125,-0.269498518,0.753989805,-2.600801142
1.871820498,1.032892599,4.863834398,9.905956263,12.47326472,2.111207732,6.461643483,10.70328736,7.924351376,14.75373448,12.63079041,6.385010844,-0.741367209,-19.43564,-0.518406685,-0.507453368,-1.679462098,-1.097295586,-2.892463414
0.748912594,0.18578836,3.003653268,8.233621214,11.86227943,1.513540438,6.408076243,10.79627983,6.517037558,14.13469338,9.663957927,2.546290765,-1.240890699,-20.1363314,-2.711726268,-0.707445426,-2.284812835,-1.952119414,-1.868481775
0.684704383,0.627674838,2.360643895,7.133892656,11.19400833,0.536006799,4.68862392,9.869916754,4.10258643,13.58970044,4.623280285,-1.497439765,-2.833145702,-20.53254541,-4.01745914,0.349675892,-1.731697918,-1.746516298,-0.348046613
1.322384656,1.836024991,3.032445808,6.831668447,10.10373773,-0.772224654,1.721325397,7.862560142,1.458036642,13.06220285,-0.854976749,-4.889017411,-5.291424662,-20.61998603,-4.172720982,1.830193009,-0.383715774,-0.724989412,0.630416579
2.050410644,3.165702394,4.678867519,7.349019311,8.646499922,-2.040896965,-1.335558102,5.523356089,-0.136138779,12.88339119,-4.970796883,-6.876939976,-7.937170973,-20.49347845,-3.289930999,3.007711498,1.0240099,0.793014466,0.597849522
2.577292767,4.361968452,6.780772119,8.562068309,7.393947773,-2.723980917,-3.321252926,3.962190525,0.161772856,13.54997221,-6.709142245,-7.092296793,-9.918231582,-20.15949285,-1.739713784,3.723631558,1.948734368,2.515964946,-0.075657237
3.073884605,5.574145756,8.809202373,10.14269447,6.959318987,-2.529341261,-3.82379079,3.774942622,1.935800931,15.09699778,-6.271629982,-5.790313185,-10.66602965,-19.54978083,0.009628367,4.273006172,2.338126012,4.130115713,-0.60090942
3.805918407,6.923467366,10.2624941,11.50217204,7.381936704,-1.736163781,-3.34159538,4.50647996,3.592315535,16.70420726,-4.744723169,-3.807707878,-10.21364792,-18.69891771,1.534340404,4.896688099,2.472354817,5.260863814,-0.476620051
4.681928988,8.121351791,10.71534005,11.9340965,7.977828745,-1.052451768,-2.744744112,4.980008348,3.454827426,17.06253502,-3.282947375,-2.13049913,-9.119544986,-17.85652891,2.570041548,5.418242799,2.58589524,5.600162068,0.127202095
5.211788717,8.582580963,9.995763267,10.99201889,7.863870222,-1.067013072,-2.514118109,4.286535623,1.119264188,15.3631007,-2.395068313,-1.289795171,-8.035480458,-17.36130408,3.087879971,5.403314203,2.664192619,5.151998223,0.602525444
4.949918,7.974428631,8.395015536,8.868117036,6.739610472,-1.742232983,-2.40159012,2.628401606,-2.01500521,12.13551668,-1.794839759,-1.015931265,-7.243313524,-17.35295779,3.28795353,4.690897457,2.581066942,4.358963122,0.498730157
3.996050743,6.670522495,6.661853531,6.431734122,5.233620798,-2.402836254,-1.759599114,1.283910947,-3.564997028,9.15722684,-0.830235566,-0.45063402,-6.515440289,-17.59085753,3.476194024,3.751510213,2.375325811,3.909074732,-0.070252551
3.034206018,5.607348201,5.640640049,4.788505039,4.4618907,-2.26884864,-0.199132798,1.667448768,-1.811265222,8.350883209,0.908873321,1.195989539,-5.393123255,-17.58411196,3.870391516,3.452657273,2.327324045,4.286181056,-0.55749489
2.808664579,5.575926832,5.7277777,4.600060404,5.123580531,-1.106673338,2.022270411,4.211340915,3.043930151,10.42847522,3.274606086,4.020262861,-3.641424895,-16.9626351,4.462789763,4.360639705,2.716806601,5.39038449,-0.505613127
3.477323294,6.536073289,6.555081039,5.642907434,6.881416807,0.547336799,4.197088757,7.957792132,8.964587147,14.31305624,5.711922423,7.303123654,-1.508816567,-15.78482667,5.052658663,6.176615481,3.494460786,6.558312163,0.031336708
4.432634665,7.583293546,7.205207043,6.954059983,8.560068435,1.785779726,5.723621136,11.18577913,13.44217493,17.81260071,7.664264978,9.974640736,0.404763524,-14.50932707,5.43380838,7.843671946,4.223947588,7.015900154,0.548313902
4.780837219,7.653143018,6.85924085,7.484748952,9.018977421,2.024574857,6.50073493,12.58107674,15.08497546,19.06862143,8.865966631,11.29342444,1.54571894,-13.6390649,5.58096817,8.296642279,4.411786497,6.435147192,0.563900102
4.077490901,6.388422902,5.400432444,6.795786167,7.994651509,1.422950108,6.841984997,12.05760356,14.26528972,17.72138853,9.331276168,11.22858462,1.750710334,-13.32840325,5.663546767,7.252845769,3.959660201,5.15787366,0.065421643
2.677413336,4.424111571,3.49464559,5.296718399,6.24018247,0.700559544,7.06654678,10.6573206,12.46058236,14.98233192,9.165331206,10.31191511,1.297432863,-13.27601416,5.862437067,5.382508328,3.31868131,3.906663012,-0.483175272
1.398833442,2.839846191,2.075140314,3.886114987,4.881182875,0.532204123,7.211634511,9.695015422,10.97185525,12.65800591,8.469272434,9.171026124,0.680314435,-12.97964706,6.155814181,3.7230146,3.165047444,3.220808318,-0.572472343
0.818086025,2.261258825,1.64846933,3.304290274,4.545731869,1.036271212,7.143030211,9.854845785,10.11633817,11.92769071,7.457210714,8.171168048,0.326220455,-12.12529943,6.293096464,2.853559545,3.84700786,3.079089667,-0.118071296
0.837367149,2.40169351,1.987154739,3.697032404,4.974124725,1.759300843,6.899402224,10.88112189,9.459664543,12.75602751,6.611248957,7.414855837,0.447109999,-10.78894162,6.020824942,2.544626772,5.079713825,3.006963401,0.461639889
0.902224509,2.436066413,2.441702084,4.672745266,5.370985984,2.117569385,6.839738636,11.95921457,8.680979095,14.22719437,6.581070563,6.970395209,1.050590631,-9.31519498,5.381672745,2.159685648,6.167231167,2.552806833,0.630521607
0.632666471,1.842757272,2.568730237,5.716452798,5.132602481,1.882962381,7.348487457,12.35369888,8.123427605,15.3610749,7.743932106,6.993401218,1.989533347,-8.023036167,4.799923835,1.404376711,6.573714678,1.711417218,0.228825023
0.242396816,0.923009753,2.501246343,6.560643283,4.308019469,1.307296127,8.3230099,11.78123825,8.441164852,15.70445825,9.715613618,7.562263606,2.960554915,-7.013977396,4.816136804,0.705483405,6.354536939,0.933899152,-0.376834023
0.322876029,0.505404769,2.726090992,7.212003664,3.440519192,0.829704045,8.962627837,10.34287568,9.670842318,15.32711337,11.28419246,8.402261381,3.502314471,-6.224278212,5.636738772,0.843959338,6.074805116,0.730787745,-0.626862496
1.181466888,1.101887396,3.478115578,7.681001206,2.999037624,0.674070493,8.181578562,8.251834517,10.68432121,14.42166321,10.99788472,8.857329081,3.120418298,-5.614033289,6.862946809,2.15902645,6.288094537,1.224510534,-0.283077985
2.374381654,2.308566061,4.3270641,7.735882765,2.94223397,0.702094278,5.420384171,5.69627265,9.722037262,12.99140743,8.115030401,8.2735727,1.566560638,-5.264924273,7.665875734,4.058589191,7.029715447,2.037019412,0.346011033
2.930209011,3.045120086,4.383865268,6.962543183,2.790800999,0.619407015,1.219474825,2.931415182,5.752622504,10.91146577,3.246158079,6.546418614,-0.893119462,-5.274048553,7.333924641,5.329141808,7.761701237,2.59432426,0.679844426
2.130661776,2.465147592,3.0042367,5.105448505,2.100972417,0.30531944,-2.960362432,0.393896117,-0.41827553,8.220230337,-1.853882193,4.349894604,-3.468988841,-5.560349785,5.804332069,5.03921996,7.811248557,2.568759256,0.397652645
0.17306725,0.733095257,0.399125606,2.379471758,0.882931851,-0.051161514,-5.602784111,-1.409030547,-6.30734242,5.271429834,-5.28960361,2.769808428,-5.198642295,-5.811008577,3.768819576,3.290085103,6.922342866,2.078268686,-0.254138583
-1.90353537,-1.056276118,-2.401033178,-0.557486792,-0.407963865,-0.118123659,-6.058975088,-2.226019384,-9.243741688,2.549007595,-6.15317602,2.560504538,-5.473468947,-5.672486362,2.247597294,1.168258127,5.457536726,1.495863883,-0.667660614
-3.014336159,-1.790605343,-4.249144346,-2.990819236,-1.267379052,0.288556754,-4.84717012,-2.31135856,-8.16332168,0.317195301,-4.974667213,3.600840539,-4.38143899,-5.047869391,1.923228128,-0.082427798,4.101336453,1.069888872,-0.425647978
-2.881369637,-1.302653581,-4.696949845,-4.591314276,-1.538983184,1.065569681,-3.144690678,-2.300375281,-4.361219671,-1.533779825,-3.183364186,4.999413835,-2.613357271,-4.233264057,2.704630422,0.002257599,3.339204627,0.705542952,0.281040831
-2.201867477,-0.524638612,-4.25431311,-5.545426767,-1.453977567,1.940473247,-1.915282331,-2.72361352,-0.599553352,-3.267636632,-2.013713447,5.772722181,-1.001590673,-3.743676631,3.816950741,0.8163504,3.148856632,0.089393416,0.744415377
-1.97953395,-0.670507937,-3.882309442,-6.265124485,-1.310746369,2.70306692,-1.349082236,-3.524419744,0.800697966,-4.902022893,-1.69479753,5.542793907,-0.03346709,-3.945085311,4.330427457,1.245816158,3.122640611,-0.980151016,0.27808973
-2.60545316,-2.144228094,-4.155349473,-6.930812221,-1.131132645,3.315784081,-0.969306104,-4.002679075,-0.501409852,-6.022608096,-1.502890178,4.696247,0.32340325,-4.784158688,3.747490182,0.588282754,2.859199481,-2.368687438,-1.239380107
-3.503796136,-4.13231359,-4.802808869,-7.27094636,-0.638424996,3.816367157,-0.193915009,-3.290943539,-2.783119731,-6.031588181,-0.549635566,3.924320309,0.418862742,-5.830195528,2.267501527,-0.924423783,2.262204872,-3.683150936,-3.259284339
-3.659482803,-5.25232071,-5.005484739,-6.784579333,0.4167135,4.149445915,1.173529413,-1.033605456,-3.62040447,-4.656965161,1.392508259,3.598768831,0.572943653,-6.583308089,0.60681322,-2.379196613,1.519776828,-4.559815848,-4.963188136
-2.556358102,-4.703727575,-4.166357982,-5.231301575,1.897154403,4.134714235,2.881125707,2.244914017,-1.65469165,-2.295357169,3.699151119,3.551144071,0.882958348,-6.790959921,-0.451301885,-2.929746128,0.854302818,-4.888245105,-5.819016926
-0.680752677,-2.921280902,-2.469412168,-2.970559445,3.246496187,3.628909806,4.514178912,5.371234913,2.489052225,0.120246657,5.432154677,3.415489576,1.285885039,-6.53409734,-0.47503585,-2.389898814,0.324646788,-4.778500328,-5.841862288
0.870968424,-1.164538658,-0.737842041,-0.838201117,3.850398309,2.722361307,5.771363346,7.192178838,6.689696019,1.651374498,6.085011793,3.148509549,1.720675248,-6.062680886,0.445541404,-1.22624125,-0.133192223,-4.337046738,-5.395533594
1.337001389,-0.412791109,0.272049829,0.380116523,3.50033696,1.752254399,6.487091236,7.212391248,8.767287287,1.893797903,5.882645068,3.171437042,2.170413414,-5.570037057,1.809203967,-0.05583379,-0.507856752,-3.49999142,-4.776757779
0.938184787,-0.54449068,0.505280081,0.485731769,2.566273938,1.081899691,6.494373631,5.792315219,7.837362227,1.152844855,5.427333872,3.952578128,2.542052941,-5.110046023,2.989829894,0.850614461,-0.604040328,-2.107715467,-3.987191669
0.638577788,-0.522289768,0.603521496,-0.001154894,1.729127716,0.829070095,5.61086258,3.844390411,4.74159244,0.183597173,5.083662383,5.421943554,2.565734542,-4.687876303,3.550797723,1.643860277,-0.175536827,-0.158325453,-2.886933055
1.227218854,0.593513475,1.270513219,-0.223017255,1.493431678,0.793886608,3.86699783,2.297247294,1.416384736,-0.267615582,4.706528151,6.827561819,1.917661654,-4.37694119,3.457595122,2.568573047,0.805236232,2.012868577,-1.543958968
2.555065865,2.719624987,2.586980911,0.401079779,1.871518889,0.660847552,1.75558386,1.674702331,-0.285115349,0.182628121,3.954305938,7.267360962,0.542013394,-4.307362125,3.092667552,3.612443043,2.008127519,3.829925782,-0.398819979
3.638222653,4.748612933,3.904268687,1.77743493,2.466207313,0.29182979,0.145782927,1.963950247,0.406851878,1.439195652,2.84020691,6.480376322,-1.114194216,-4.53138679,3.037257498,4.47884268,2.904941085,4.802522369,-0.031464309
3.55934968,5.477025387,4.422172095,3.228743536,2.839619906,-0.163281216,-0.234083689,2.726950293,2.843903214,2.993020906,1.919400228,5.165547083,-2.25043154,-4.924914015,3.699024045,4.87491184,3.123910356,4.819519997,-0.694753438
2.355353547,4.628312928,3.92447219,3.980015654,2.841239589,-0.439071522,0.607868515,3.323455699,5.365449203,4.07341592,1.846007439,4.454046297,-2.238607714,-5.26386658,4.993641905,4.793188748,2.704132464,4.1659731,-2.0233571
1.0533723,3.044639399,2.981794247,3.67242707,2.647254862,-0.434793432,1.799662511,3.166641134,6.190683553,3.888001381,2.66691743,4.918388585,-1.145874998,-5.430917436,6.319414794,4.490793731,2.028834852,3.258306054,-3.210310401
0.763604378,1.870547234,2.404584071,2.553398942,2.53690406,-0.315552201,2.181453528,1.985753619,4.377603867,1.983390481,3.551839658,5.982765127,0.209133246,-5.547981361,6.907983796,4.191222107,1.492511548,2.334176782,-3.557862433
1.611729397,1.476352417,2.431672823,1.254833946,2.643330504,-0.319906814,1.217972145,0.026434367,0.403969377,-1.375120406,3.338620541,6.326711162,0.795480341,-5.870898503,6.3535497,3.822008469,1.186294477,1.359988716,-2.983769414
2.504441198,1.132483656,2.432397695,0.364022882,2.892294717,-0.459178698,-0.48589616,-1.959666657,-3.961613926,-5.0861505,1.538994868,5.028057591,0.130589258,-6.509104334,4.932080448,3.071327614,0.862966233,0.210848508,-2.079683693
2.036279867,-0.21425842,1.480299076,0.099558119,3.136027763,-0.428468339,-1.556873694,-3.044924378,-6.534834849,-7.611102825,-1.046535579,2.493348233,-1.344451546,-7.232980993,3.421807418,1.729717902,0.193598258,-1.070134001,-1.666269274
-0.175764791,-2.731156031,-0.645549213,0.279050615,3.311616156,0.131716066,-0.895630137,-2.670698575,-5.944850614,-7.808604115,-2.725450613,0.319978752,-2.605902473,-7.593082937,2.509681875,-0.007767159,-0.919770855,-2.187501009,-2.183550131
-2.908474714,-5.193368765,-2.952526474,0.535813128,3.462727326,1.231115737,1.419475561,-1.06413647,-2.501459794,-5.702806539,-2.119774345,0.102683927,-2.84967963,-7.300791794,2.238296728,-1.581222988,-2.239320986,-2.763623778,-3.375928756
-4.131695659,-5.776606995,-3.8184762,0.590273818,3.627057376,2.375146351,4.125923692,0.832862606,1.929054504,-2.573627136,0.7490493,2.123734529,-2.0971458,-6.548077768,1.980232154,-2.430956828,-3.357340445,-2.601861288,-4.492118648
-2.668847541,-3.613409091,-2.346640119,0.398093777,3.733670048,2.872950885,5.728573029,1.976652137,5.087689868,-0.16291528,4.408446047,5.038549155,-1.092922317,-5.942698574,1.03208273,-2.362521959,-3.961268722,-1.800117054,-4.825502362
0.609958366,0.179716593,0.59173474,0.127364018,3.635437519,2.406857343,5.679335406,1.993782774,5.822961862,0.527286594,7.018927075,6.888672617,-0.580889559,-6.044561438,-0.618840104,-1.586917327,-3.970455856,-0.622362526,-4.18431059
3.136137721,2.991094317,2.621883029,0.036199138,3.251528275,1.380711523,4.833517902,1.522960178,4.873104916,-0.040097913,7.751959561,6.665200667,-0.590890908,-6.85836922,-2.02675399,-0.424590659,-3.471598751,0.731275743,-2.969143544
2.432616207,2.524830164,1.468382744,0.346391016,2.672198408,0.695390799,4.785278146,1.790557225,4.291518779,-0.303082103,7.345580752,5.145264926,-0.380707671,-7.731226896,-1.853315463,1.012862599,-2.577917195,2.224497721,-1.848079951
-1.932493635,-1.375456766,-3.190342764,1.15588958,2.108760848,1.066905225,6.577637365,3.654411716,5.851041591,1.143451016,7.382497088,4.283555276,0.878835849,-7.804145025,0.578914127,2.831136271,-1.383708519,3.86244608,-1.298612112
-7.733868033,-6.323855131,-9.059271883,2.382406366,1.724661475,2.416557064,9.790329167,6.80541786,9.583588284,4.339021813,8.895638935,5.619964492,3.247919682,-6.701275917,4.566678635,5.035473595,-0.047085266,5.48856848,-1.333788534
-11.37961598,-8.831595685,-12.43081759,3.737298025,1.505610328,3.851520883,12.71965213,9.766801356,13.59629308,7.765249551,11.4695794,8.985107556,5.750512154,-4.905455112,8.293599113,7.220513563,1.135686585,6.741061061,-1.553255133
-10.25534289,-6.62800984,-10.56011294,4.77104713,1.295124482,4.297138315,13.51695358,10.77098151,15.38350756,9.383419121,13.58232202,12.55497598,6.985097318,-3.48514466,9.998772884,8.638108215,1.81589516,7.266206687,-1.427725355
-4.475322438,-0.22127926,-3.579852958,5.037785883,0.965461828,3.30686882,11.42937703,8.933593156,13.6952565,8.144365699,13.87268005,14.20898666,6.15762682,-3.349094765,9.215079109,8.676538819,1.823822151,7.026022899,-0.609314154
3.183547816,7.399405879,5.431331926,4.353745112,0.563830814,1.413456671,7.248551691,4.895490086,9.543525073,4.81127371,12.23114056,13.09341155,3.697046613,-4.593272006,7.118213606,7.374021424,1.348548196,6.407800873,0.896610675
9.079087724,12.67626334,12.32680922,3.01361946,0.295383338,-0.25776663,2.71143682,0.469077327,5.548013963,1.449245213,9.780054925,10.15363576,0.933311295,-6.442148526,5.669003242,5.496832696,0.864999916,5.983246352,2.743239721
10.93961774,13.64450271,14.43198957,1.780932315,0.356463492,-0.805599663,-0.626899136,-2.468366477,4.089126305,-0.033513241,7.790985311,7.270151335,-0.914054863,-7.818127577,6.163705893,4.053157994,0.813401113,6.069384078,4.393335303
9.01848767,10.88889569,12.00876524,1.560728975,0.768278391,-0.15970678,-2.219573564,-3.076725879,5.654550151,0.814603762,6.527118919,5.76847382,-1.616956721,-8.083189319,8.28618062,3.60308093,1.273454017,6.444806705,5.339005984
5.509069789,6.784905358,7.711366611,2.869337675,1.354842124,0.971815653,-2.563084682,-1.938693866,8.602200964,2.795999136,5.066166142,5.527356438,-1.980452304,-7.386101988,10.38024373,3.923412936,1.914614877,6.480689236,5.320191196
2.815142738,3.731388613,4.547254361,5.403863529,1.871861761,1.720905497,-2.594318492,-0.553208293,10.44854279,4.036542148,2.28150918,5.337745457,-3.039694761,-6.395765952,10.71451845,4.298470629,2.285120533,5.616927317,4.461874455
1.987358399,2.679151598,3.867196723,8.029913873,2.161173611,1.71438151,-3.013187879,-0.359242616,9.626547964,3.301623677,-1.898515784,4.092626898,-5.108238392,-5.703259864,8.748085759,4.173418909,2.206083758,3.82127355,3.247722723
2.356375004,2.880492934,4.767363918,9.293882261,2.202437913,1.255166249,-3.999257453,-1.945801573,6.370435011,0.663694242,-6.128099606,1.736877598,-7.482537213,-5.411252531,5.432558066,3.595888923,1.929661091,1.665000461,2.301081692
2.423794606,2.816767732,5.162432943,8.230925696,2.051660433,0.949506993,-5.363864716,-4.867703779,2.16988006,-2.849059397,-8.595641723,-0.801323894,-9.038089776,-5.219595841,2.371714136,3.066531674,1.912117598,-0.054523357,2.057881672
1.184538238,1.465792995,3.568679791,4.99843294,1.767175187,1.155067463,-6.83551237,-8.032872792,-1.591262566,-6.154808974,-8.536768382,-2.543543847,-9.195048602,-4.863712481,0.558689735,2.953965555,2.387211265,-0.856463398,2.516538515
-1.128373127,-1.017689142,0.220652309,0.905079253,1.41359463,1.72624666,-8.184441468,-10.31313584,-4.613783081,-8.757737681,-7.000294255,-3.365837701,-8.427321002,-4.466332646,-0.298482057,3.029334147,3.11012455,-0.87049317,3.238419917
-3.325612193,-3.567233457,-3.225837563,-2.255666634,1.119543825,2.227310442,-9.16525112,-11.02650336,-7.531475014,-10.69337736,-6.135750881,-4.062611897,-7.886445042,-4.468466311,-1.376893823,2.577682076,3.507533649,-0.672730782,3.623038286
-4.218791056,-5.059168767,-5.03348957,-3.213898618,1.076827513,2.366868889,-9.48063863,-10.13788354,-10.9201124,-12.04213471,-7.516570903,-5.543901865,-8.460021312,-5.20106527,-3.658348539,1.025128308,3.124400134,-0.816230595,3.288594408
-3.469551656,-5.064438791,-4.662224947,-1.9623398,1.415531176,2.245744026,-8.923075376,-8.203686403,-14.46440458,-12.62641904,-10.86159531,-7.913725721,-10.04715359,-6.488114631,-7.071820417,-1.461019945,1.999843354,-1.43313692,2.301658831
-1.739024615,-4.012016906,-3.044531115,0.257221886,2.037176408,2.2199425,-7.606194038,-6.129534298,-17.06123032,-12.2235076,-14.22117289,-10.26047929,-11.63232751,-7.650283353,-10.51506678,-3.95308712,0.658512749,-2.201453261,1.100863685
-0.132102445,-2.77383579,-1.761646751,1.740831544,2.58232581,2.543535778,-6.027921051,-4.788931252,-17.73226245,-11.02374948,-15.48304122,-11.3386215,-12.06675453,-7.934810831,-12.66183912,-5.39397738,-0.274637361,-2.662227532,0.181164603
0.56948062,-2.062595138,-1.850841987,1.396179294,2.6285668,3.137552637,-4.809860583,-4.591030961,-16.46479042,-9.753994562,-13.95435345,-10.53480273,-10.90190219,-7.036183035,-12.85471199,-5.380737595,-0.51573858,-2.601392109,-0.222717779
0.322302186,-2.065152544,-3.160656543,-0.588149622,2.005968635,3.683477976,-4.255639562,-5.195754071,-14.17677524,-9.191140398,-10.73214212,-8.286104386,-8.625399799,-5.299922472,-11.39938438,-4.44887936,-0.26185504,-2.186647376,-0.227837868
-0.336559092,-2.478237188,-4.64920182,-2.913296083,0.970628528,3.923360211,-4.084307242,-5.613261643,-11.83038049,-9.430806955,-7.622891581,-5.628966966,-6.184451244,-3.466391473,-9.139905202,-3.60722114,0.064489891,-1.772767459,-0.12815039
-0.800965677,-2.816116913,-5.268630377,-4.056049377,0.053465693,3.865366094,-3.60345331,-4.755807497,-9.533748766,-9.624032348,-5.605260148,-3.326125278,-4.264197023,-2.176015609,-6.782637891,-3.495923983,0.226679041,-1.562272932,-0.116862191
-0.833713451,-2.730995474,-4.69647676,-3.263526429,-0.334197896,3.7053854,-2.24214369,-2.184265465,-6.51597533,-8.566211526,-4.180816707,-1.358258154,-2.928228909,-1.617676253,-4.556367591,-3.858452692,0.383230284,-1.412982045,-0.132597634
-0.637577606,-2.161406292,-3.406264525,-0.987025863,-0.227200234,3.561788934,-0.052606043,1.441472484,-2.070190544,-5.760092166,-2.13015464,0.80441538,-1.84603796,-1.546755351,-2.401431247,-3.763608394,0.924171136,-0.951162028,0.063700505
-0.585164313,-1.287939646,-2.154212996,1.509441619,-0.077867381,3.303601205,2.216947531,4.594231554,3.366583334,-2.060354184,1.076134767,3.458571718,-0.800780871,-1.586990192,-0.376347785,-2.401209254,2.085767037,0.099925245,0.667233365
-0.875241659,-0.392105865,-1.39173841,3.046813219,-0.368332981,2.660190891,3.559900738,5.739447599,8.042252754,0.746889536,4.544137214,6.175709242,0.035145898,-1.531901732,1.181637412,0.187187362,3.67524972,1.633079734,1.654945081
-1.386004046,0.273915491,-1.074627615,3.276583558,-1.172067983,1.524081375,3.353692559,4.294969065,9.938232782,1.21514847,6.608758545,8.029666175,0.294540166,-1.421896621,1.901579709,3.021483814,5.134344295,3.135761644,2.791789968
-1.799310417,0.556463073,-0.927858121,2.764779152,-2.03708684,0.160689392,1.750862252,1.033627378,8.273748805,-0.616649338,6.300823615,8.334851885,-0.154996812,-1.402809231,1.752596362,4.804353785,5.887574565,3.964810017,3.792965742
-1.853549976,0.417516627,-0.829547322,2.419428017,-2.307603028,-0.892801336,-0.442668869,-2.372660908,4.224567862,-3.161878914,4.274553201,7.210923915,-1.005839285,-1.550718365,1.130062041,4.774594598,5.702627229,3.742140098,4.498354416
-1.510920578,-0.070480649,-0.927569236,2.751495823,-1.633987682,-1.18321445,-2.289208542,-4.370183139,0.185984179,-4.4313939,2.277625263,5.445984323,-1.764891657,-1.831151354,0.524622816,3.173627374,4.805162995,2.617179117,4.927265601
-0.928020693,-0.735777459,-1.400191838,3.547683319,-0.258074284,-0.665473938,-3.265699466,-4.413753661,-1.917575371,-3.52665919,1.548352749,3.772241299,-2.248101769,-2.195412073,0.073026584,1.037577409,3.701000908,1.228951835,5.197286403
-0.290505147,-1.329746351,-2.123081073,4.171671595,1.153424326,0.270056466,-3.487672615,-3.155602442,-1.978545333,-1.311443075,1.544523691,2.211466934,-2.837764875,-2.677084474,-0.562347059,-0.4678573,2.872780535,0.385813124,5.400902463
0.330365049,-1.575003431,-2.593959947,4.196668791,1.97914519,1.081484751,-3.522846721,-1.880867017,-1.668799281,0.267210098,0.209176826,0.098606918,-4.212324739,-3.367112924,-1.829506328,-0.674945383,2.568612063,0.646277568,5.547624275
0.985271936,-1.244555331,-2.228444306,3.818122545,2.028634008,1.431069351,-3.979242456,-1.657334401,-3.085722002,-0.336109159,-4.322087686,-3.211380576,-6.730253297,-4.286093486,-3.751426709,0.36985191,2.779188925,2.036881056,5.601336978
1.735836503,-0.255379063,-0.800476788,3.697592551,1.553880976,1.336298795,-5.150630873,-2.794782492,-7.183346263,-3.146069407,-11.96464053,-7.571421861,-9.985121413,-5.28998957,-5.734774868,2.117093185,3.340752848,4.059019898,5.554264112
2.543218266,1.263023338,1.338748257,4.373004283,0.936817757,1.03829365,-6.900442198,-4.888885641,-13.20402571,-6.757630701,-20.41609115,-11.91006319,-12.94133742,-6.123081003,-6.96163013,3.890662741,4.041453747,5.967793185,5.458584458
3.262868078,2.971801956,3.451817868,5.73667678,0.372702552,0.75207896,-8.784053814,-7.257118493,-19.45480027,-9.488367422,-26.72249823,-14.90932639,-14.58972911,-6.592021246,-7.073775072,5.157187604,4.669820413,7.150091908,5.390907026
3.746779409,4.421963597,4.87024133,7.031354968,-0.168772191,0.533142308,-10.2881147,-9.345303833,-24.67528122,-10.61461004,-29.47955027,-15.96476919,-14.62716542,-6.712589556,-6.552423883,5.608319184,5.035072455,7.380079896,5.392439706
3.953780212,5.224109684,5.364233375,7.390761842,-0.719796259,0.346222152,-11.05493163,-10.83816782,-28.84020014,-10.71796516,-29.88363949,-15.64070703,-13.63428892,-6.693361794,-6.409970064,5.151215926,5.011187721,6.821021945,5.444566749
3.962442823,5.212531182,5.168345825,6.504359569,-1.110286356,0.212916581,-11.01516411,-11.54946436,-32.82537116,-10.9603381,-30.75329933,-15.23850594,-12.62485523,-6.759086005,-7.386700224,3.912662957,4.600495955,5.816298192,5.497560862
3.874438975,4.514044088,4.696729069,4.881413867,-1.043938491,0.248026676,-10.40594158,-11.36088547,-37.38317459,-11.9906137,-34.30225878,-15.82292802,-12.3341011,-6.957406168,-9.294329362,2.247056312,3.954733735,4.649398943,5.517523691
3.703160595,3.475942896,4.220089371,3.508896218,-0.421793397,0.527221322,-9.680336134,-10.35872816,-42.42338292,-13.42852806,-40.47084206,-17.48981019,-12.79770364,-7.111955659,-11.07000872,0.656532262,3.305793232,3.450864086,5.505445228
3.362964463,2.488601272,3.766711027,3.176114248,0.403432654,0.922134173,-9.337364708,-9.028886972,-47.22752041,-14.31065075,-47.14700069,-19.44778149,-13.51207172,-6.967499781,-11.54283604,-0.413628938,2.836995392,2.289119579,5.478092692
2.783989789,1.804061353,3.281620012,3.986933401,0.747902264,1.097146576,-9.734369249,-8.221546636,-51.31624129,-14.04068206,-52.03227789,-20.81305676,-13.99371773,-6.419284591,-10.32927361,-0.802651998,2.588916828,1.316048413,5.441914854
2.053607227,1.455080444,2.844744838,5.405950596,0.074630641,0.720692902,-10.96540459,-8.759794241,-55.0824228,-12.98854716,-54.56011954,-21.44137861,-14.25987053,-5.653043477,-8.15261525,-0.710378556,2.473802922,0.790811285,5.395167846
1.442825744,1.314591725,2.714112375,6.745722797,-1.540736072,-0.26674847,-12.86603267,-10.90993791,-59.54356433,-12.23728323,-56.28060265,-22.10797293,-14.85389153,-5.088573921,-6.329372715,-0.532550092,2.383444202,0.926164366,5.358316237
1.263257261,1.246211128,3.141331047,7.665935147,-3.373926742,-1.563556079,-15.13504208,-14.13325755,-65.41879965,-12.73395857,-59.45636486,-23.88647722,-16.42337044,-5.157583589,-5.817285719,-0.551266977,2.298963437,1.688773802,5.397066588
1.650172127,1.241392248,4.130039418,8.290029273,-4.532796495,-2.694455064,-17.49287818,-17.38121577,-72.40154156,-14.59012636,-65.11996322,-27.22087012,-19.19982856,-6.051881792,-6.550069813,-0.704236418,2.315774187,2.76274593,5.603937464
2.448175196,1.451339974,5.369598875,8.899964695,-4.601658019,-3.336109434,-19.78068114,-19.77626736,-79.34937096,-17.09865765,-72.24736089,-31.42177232,-22.76994351,-7.58837973,-7.541384349,-0.612188237,2.572989031,3.760939087,6.041964349
3.30715051,2.089688515,6.423031073,9.530853728,-3.932476799,-3.519567124,-21.95536543,-21.18391033,-85.26568154,-19.38503939,-78.69232057,-34.98687212,-26.27657712,-9.264751839,-7.640568899,0.142522136,3.149992155,4.533326847,6.690723313
3.925177659,3.261803984,7.020408407,9.849131973,-3.33924398,-3.551326163,-24.0113286,-22.22857993,-90.17355381,-21.08215097,-83.00144328,-36.52765705,-28.87412261,-10.47978705,-6.351014153,1.676916046,4.00214533,5.290998911,7.435486464
4.245932869,4.824225358,7.211537887,9.4224867,-3.442641436,-3.73355218,-25.89898782,-23.72491046,-95.01492714,-22.45691051,-85.50858408,-35.6562086,-30.12625259,-10.81524154,-4.12915487,3.643684639,4.960613122,6.387338599,8.106565766
4.448078241,6.370237462,7.251859921,8.129086087,-4.203849482,-4.12775242,-27.49344579,-25.95920701,-100.5679108,-23.95142172,-87.78884786,-33.23925114,-30.13561482,-10.24465874,-2.016659109,5.360860278,5.77722464,7.901728076,8.541410454
4.73679729,7.377282147,7.326978477,6.325648425,-5.025373304,-4.553875808,-28.6227032,-28.38633669,-106.3189137,-25.62831173,-91.01278751,-30.87895465,-29.40452756,-9.157314469,-0.945539685,6.165080022,6.194416778,9.394699963,8.636469844
5.118439519,7.462289095,7.360532417,4.606912566,-5.316992738,-4.801576274,-29.13576194,-29.99106827,-110.3867096,-27.06255696,-94.69654292,-29.98174394,-28.56755781,-8.16439969,-1.226524094,5.784999276,6.040716956,10.11672654,8.375868288
5.357443692,6.612704584,7.07538557,3.352446557,-5.035293965,-4.847447742,-28.98650065,-30.04684113,-110.7600039,-27.77723557,-96.97180459,-30.99525403,-28.14025211,-7.770911965,-2.50933261,4.521632458,5.341944694,9.581074796,7.841062075
5.158092115,5.243085941,6.254885895,2.450506441,-4.736564667,-4.880524726,-28.30594266,-28.69569852,-106.9491575,-27.79923788,-96.14659309,-33.23471842,-28.35415743,-8.092897663,-4.123971781,3.125721409,4.387537962,8.052309436,7.200961259
4.4150209,4.002008425,4.973522757,1.442414577,-5.103042116,-5.121191687,-27.41801044,-26.90916595,-100.6737106,-27.78677877,-92.18899746,-35.33947944,-29.09398471,-8.799838627,-5.485898914,2.418728081,3.660347825,6.490937549,6.66877012
3.311692945,3.402664565,3.588554809,-0.029734153,-6.348213552,-5.605155418,-26.74660617,-25.85628028,-94.88455284,-28.55897123,-86.8338533,-36.05158278,-29.9478857,-9.334908517,-6.304659615,2.843732544,3.598191134,5.898724779,6.419583571
2.17775132,3.489751923,2.487439354,-1.852921909,-8.000705936,-6.128835843,-26.60715984,-26.13630845,-91.75175152,-30.39525696,-82.21550331,-34.87174511,-30.37780333,-9.276823074,-6.557188065,4.192392409,4.296327919,6.527991397,6.499030368
1.231966671,3.777457999,1.796708738,-3.470340176,-9.2398657,-6.402223807,-26.97331733,-27.40975017,-91.14422616,-32.69325224,-79.20797656,-32.25597123,-29.96606669,-8.593511837,-6.356662753,5.689010386,5.36713938,7.60587141,6.785678084
0.444308886,3.548050626,1.297339476,-4.290650234,-9.498761583,-6.272691144,-27.38640014,-28.65013603,-90.81121628,-34.28908861,-76.8928889,-29.2821173,-28.62211305,-7.605248803,-5.851641896,6.42528244,6.118944415,7.871618783,7.054339835
-0.353454399,2.357021078,0.626242711,-4.140669434,-8.849268944,-5.831020414,-27.13674562,-28.7994043,-88.15926812,-34.20646728,-73.57799957,-27.00035019,-26.62032318,-6.69346144,-5.18726783,5.913161135,5.993890495,6.573117759,7.11775589
-1.208190336,0.415263105,-0.389302176,-3.385024131,-7.890801225,-5.325336324,-25.67379158,-27.36861193,-82.25254548,-32.26718818,-68.4373749,-25.84795892,-24.43277938,-5.996055838,-4.484770481,4.406207565,4.973669816,4.147060679,6.9519329
-1.885656673,-1.439605747,-1.527274176,-2.615036951,-7.279303934,-4.975755985,-23.00491078,-24.62762187,-74.48186441,-29.13101847,-62.31870446,-25.46830782,-22.4649945,-5.345481951,-3.811324144,2.749251987,3.630505757,1.998751474,6.705731375
-1.986586273,-2.208177375,-2.260759344,-2.167638473,-7.29659162,-4.851177938,-19.79088942,-21.34934046,-67.40848661,-25.7954787,-57.01350405,-25.03185082,-20.87797417,-4.502098403,-3.167081691,1.82356021,2.739442072,1.492725445,6.578426978
-1.27245615,-1.344423953,-2.082911205,-1.872307033,-7.769737014,-4.889946834,-17.021155,-18.35515881,-62.73784231,-22.97704227,-53.64504852,-23.83995404,-19.61044486,-3.473400916,-2.52270886,1.959735577,2.714321935,2.916225347,6.659189703
0.067032262,0.890799705,-0.838245204,-1.228615094,-8.321545062,-5.006550073,-15.45184534,-16.164071,-60.04532656,-20.81143301,-51.60573142,-21.799262,-18.54972296,-2.617542318,-1.884306648,2.747356301,3.299297128,5.235386816,6.862159888
1.44925875,3.576940404,1.159742579,0.142604051,-8.672686863,-5.161090737,-15.18357067,-14.89278049,-57.23327088,-18.98952316,-48.9958363,-19.43382336,-17.67913088,-2.404073096,-1.31588045,3.392197457,3.772884321,6.848526421,7.013916446
2.239704965,5.663239436,3.279600593,2.153305409,-8.737557795,-5.32904841,-15.66989596,-14.35107666,-52.28628691,-17.09709016,-44.20377274,-17.42559189,-17.06220849,-3.010966789,-0.883119004,3.3420064,3.517124454,6.735938957,7.01392027
2.143356162,6.489960434,4.863546906,4.289946095,-8.500938836,-5.423852082,-16.1281814,-14.18390925,-44.86716895,-14.84107165,-37.26879282,-16.02322847,-16.68304809,-4.108630262,-0.573945568,2.663328134,2.496185874,5.076680848,6.913557422
1.340478293,5.940092034,5.465695947,5.998527221,-7.878203249,-5.276027072,-16.02124257,-13.96296626,-36.4763212,-12.0458089,-29.84775103,-14.77070041,-16.3056483,-5.05074676,-0.298716447,1.832842735,1.246846955,2.841017771,6.823667289
0.267689637,4.172863379,4.922382695,7.087331422,-6.748123383,-4.712816238,-15.24471035,-13.23906883,-29.10635883,-8.560385186,-23.80795557,-12.77897817,-15.51131089,-5.349164589,-0.003937468,1.100892884,0.380764846,0.727332102,6.720408775
-0.762848722,1.236019259,3.280147477,7.816024457,-5.138236966,-3.676558598,-13.92580378,-11.62195529,-23.55262677,-4.283837231,-19.64968027,-9.355940745,-13.92093842,-5.044980251,0.201308213,-0.002747746,0.013883155,-1.618294918,6.33600062
-1.784960843,-3.052978432,0.692527704,8.605872104,-3.358537559,-2.277010648,-12.08564672,-8.917202856,-18.79232941,0.651385901,-16.10975668,-4.534151013,-11.44226281,-4.644423387,0.066136472,-2.495155661,-0.382629415,-5.372968634,5.277942202
-3.063800676,-8.809867564,-2.623418129,9.617492367,-1.906761294,-0.734353114,-9.534115502,-5.26984061,-12.94155497,5.710500162,-11.2921353,0.887451215,-8.349562794,-4.642844645,-0.582245299,-7.095951017,-1.554922568,-11.41125104,3.334218177
-4.759351202,-15.60787723,-6.365576085,10.54498264,-1.182407337,0.72834405,-6.140165316,-1.218581982,-5.001995101,10.01543808,-4.377978564,5.801951,-5.135605635,-5.023655568,-1.572334792,-13.31774541,-3.792224574,-19.17974373,0.741730539
-6.669880198,-22.26433022,-10.1235095,10.79372846,-1.238562021,1.945715665,-2.242751403,2.407640536,4.026884336,12.66915646,3.51603162,9.398335214,-2.256839321,-5.173697173,-2.337800263,-19.27392674,-6.559442566,-26.54102956,-1.817995269
-8.283059697,-27.17048523,-13.41691956,9.901212139,-1.782526678,2.788657664,1.2211298,4.739668922,11.57955411,13.15336307,10.04399509,11.47966488,0.033873924,-4.333277917,-2.219115565,-22.52680466,-8.7583533,-30.83443192,-3.546330175
-9.096848564,-29.03396071,-15.80440371,7.876338931,-2.420848881,3.122336279,3.102054487,5.174873143,15.1901795,11.53604076,13.32072239,12.32623399,1.665950208,-2.251931342,-0.959730097,-21.5129832,-9.438129786,-30.45335858,-3.980910998
-8.947369707,-27.56271226,-17.01366813,5.210607822,-2.932162582,2.831865602,2.734019876,3.615165285,14.14429605,8.371619072,13.23535209,12.30278594,2.610510396,0.477150183,0.979409845,-16.58060316,-8.419292565,-25.8207118,-3.265547017
-8.086026873,-23.62418165,-17.02626204,2.575728246,-3.339435101,1.926638663,0.429157122,0.530812669,9.925560935,4.405058524,11.38732252,11.57602035,2.78404857,2.702625392,2.588305769,-9.879785952,-6.373426363,-19.08362792,-2.047452327
-6.967107462,-18.76631723,-16.07464035,0.450687393,-3.749315304,0.628338587,-2.639199506,-3.189447065,5.215472043,0.302970538,9.791974222,10.15363506,2.099392476,3.438865634,2.909637345,-4.14164833,-4.33818065,-12.78931762,-1.075585881
-5.94165434,-14.42037805,-14.55277246,-1.055865128,-4.142907598,-0.673331188,-5.122508336,-6.552260812,2.257281517,-3.447931633,9.458124249,8.139105561,0.614789157,2.501255075,1.665214934,-1.168760837,-3.07271021,-8.505255816,-0.776877759
-5.103665745,-11.29550154,-12.87881791,-2.101483602,-4.336129542,-1.611663597,-6.267173523,-8.809235249,1.750834259,-6.510571417,9.935432863,5.905969772,-1.370089676,0.593294732,-0.561405281,-1.039614728,-2.729453709,-6.290553804,-1.07973309
-4.373756487,-9.297242427,-11.36776332,-2.859195991,-4.151683393,-2.055485336,-6.219967055,-9.687416557,2.911628058,-8.667986296,10.04346596,3.990355134,-3.383539974,-1.194475552,-2.738263907,-2.473445892,-3.006152208,-5.212979697,-1.557815463
-3.692222086,-7.915330434,-10.16874663,-3.343463427,-3.631038568,-2.173160493,-5.691373165,-9.398680513,4.414391084,-9.868760318,9.030011746,2.777049319,-4.987727202,-2.083397012,-4.090969838,-3.954504886,-3.541366883,-4.339882647,-1.747351478
-3.120064868,-6.729011508,-9.292162943,-3.439130186,-3.069682109,-2.283190516,-5.299635986,-8.442288312,5.385362697,-10.28927358,7.166839215,2.252636704,-5.975461428,-2.006225897,-4.570833263,-4.730416812,-4.17177164,-3.398330491,-1.412686163
-2.764288405,-5.670721378,-8.700333927,-3.076460275,-2.825069566,-2.599339206,-5.134933801,-7.32857701,5.7680928,-10.29569951,5.40200883,2.044051216,-6.418187619,-1.482039938,-4.745846349,-5.015774718,-4.873299881,-2.707524528,-0.628148285
-2.626344671,-4.930650763,-8.388709233,-2.380320846,-3.063738251,-3.067515039,-4.849421403,-6.384754262,6.013609842,-10.26752378,4.54107025,1.714824167,-6.541089487,-1.143394537,-5.231769011,-5.419881933,-5.538889413,-2.625366828,0.301167704
-2.543510231,-4.659878927,-8.38245773,-1.657027252,-3.672597178,-3.415311954,-4.111710309,-5.727812095,6.56046843,-10.38209581,4.76244887,1.083755954,-6.523802925,-1.300561468,-6.131059121,-6.197599859,-5.886613523,-3.081336875,0.977934197
-2.292539387,-4.736442469,-8.635822319,-1.223289408,-4.402737082,-3.358512559,-2.970999147,-5.359437579,7.585947114,-10.51700493,5.842947711,0.339009486,-6.360510843,-1.814263184,-6.913103989,-6.955684036,-5.626917587,-3.575056839,1.042873003
-1.76033349,-4.758832557,-8.915497801,-1.207101647,-5.093622783,-2.7879653,-1.799264652,-5.256286975,9.119864045,-10.34342588,7.733930588,-0.088034982,-5.852597664,-2.263918409,-6.795594063,-6.977363336,-4.727391696,-3.551392721,0.297577894
-1.021658697,-4.245141824,-8.797462179,-1.466646414,-5.755896644,-1.799059224,-0.891653527,-5.363117395,11.24047642,-9.535468174,10.79313073,0.254902186,-4.718074956,-2.205963597,-5.295867912,-5.800779966,-3.493001955,-2.760862443,-1.175509743
-0.259594879,-2.893512808,-7.848085116,-1.681195602,-6.441889546,-0.580594715,-0.12769113,-5.514728841,14.05576531,-7.943951573,15.34634516,1.676860243,-2.752614288,-1.348071623,-2.529689273,-3.54169452,-2.35174927,-1.311707803,-2.958464449
0.37923974,-0.758806641,-5.915247548,-1.547584645,-7.057521023,0.699672805,0.960324066,-5.405833872,17.47414223,-5.640108002,20.96682019,4.262566715,0.023660202,0.375913424,0.911510682,-0.753175518,-1.532590485,0.536561015,-4.41258951
0.844683815,1.726890342,-3.330762868,-0.954121029,-7.342192004,1.902291543,2.746227446,-4.702170279,21.04766543,-2.857267435,26.23406666,7.801956322,3.28794722,2.756119354,4.323140909,1.959506684,-0.947257848,2.5562042,-4.988282066
1.108291857,3.891438162,-0.838665414,-0.031453076,-7.080238011,2.84681517,5.090033374,-3.252917928,24.13533639,0.077952978,29.38985441,11.71376586,6.45688851,5.274602491,7.16684136,4.193016475,-0.403022667,4.518616851,-4.583585587
1.060336525,5.075385907,0.763428546,0.937394307,-6.356568128,3.303289389,7.342487497,-1.240778691,26.31642853,2.781958968,29.52213776,15.08592351,8.8804756,7.198372297,9.105369427,5.707626179,0.056816259,6.043183701,-3.688759272
0.533081382,4.919332916,1.064569636,1.687764941,-5.579344596,3.133811461,8.818979105,0.884064657,27.70151493,4.864857601,27.36728861,16.98101648,10.14462114,7.887409625,9.907257183,6.269898755,0.044491123,6.59813703,-3.138517453
-0.518153662,3.562307819,0.267280286,2.131627973,-5.176126956,2.502658392,9.370182338,2.681480169,28.83371066,6.057131495,25.02452403,16.96053977,10.33250492,7.215383087,9.44710776,5.661265394,-0.878417489,5.78914899,-3.564947352
-1.828047611,1.623503951,-0.964027059,2.425057892,-5.180807742,1.945404507,9.566064092,4.020563698,30.2265581,6.38014111,24.68971175,15.50245232,10.04939677,5.802145739,7.873518505,3.921597113,-2.718793818,3.750537871,-4.906312649
-2.838412138,-0.07343876,-1.929495674,2.911454667,-5.080969758,2.14875181,10.30944136,5.161992188,31.92808036,6.221604311,27.28232833,13.91133393,10.11849669,4.784563064,5.765719446,1.583378792,-4.821315325,1.26834599,-6.34876289
-2.981215989,-0.91379786,-2.289763677,3.96149293,-4.123019645,3.523338326,12.15763556,6.534899403,33.50478553,6.191088549,31.9352263,13.61446568,11.08081278,5.161504269,4.024270562,-0.425328347,-6.164404383,-0.574653967,-6.79834287
-2.049897158,-0.79848179,-2.156737949,5.778874281,-1.895300538,5.863042003,14.87177135,8.362026305,34.47786988,6.792164808,36.6694393,15.23413621,12.8213638,7.120726069,3.447830787,-1.263434286,-6.017082809,-1.045560543,-5.588682255
-0.368287408,-0.134051802,-1.850707561,8.265307708,1.255030946,8.377255146,17.53826399,10.42510525,34.82934368,8.127750286,39.71068149,18.11344341,14.61795782,9.858257687,4.262680853,-0.719377946,-4.453216793,-0.227356231,-2.93149705
1.399219293,0.497829187,-1.559491165,11.02082302,4.325413722,10.13018038,19.16736687,12.17150982,35.10704359,9.874549633,40.49563662,20.73670431,15.63452238,12.08883088,5.98965194,0.638981513,-2.296863781,1.071289142,0.213432045
2.668631819,0.757081685,-1.198597755,13.49272564,6.244114682,10.60941434,19.32713291,13.10209703,35.9949328,11.56794375,39.74127999,21.828752,15.53853429,12.92359754,7.806065248,1.881046553,-0.522744429,1.914538713,2.749612558
3.268624122,0.738179467,-0.579965854,15.20390106,6.523273829,10.02799993,18.37868823,13.15280019,37.69671525,12.97614759,38.69501408,21.33774245,14.78626451,12.47586268,9.15353541,2.402781996,0.415660856,1.894046588,4.086936426
3.436450069,0.798641463,0.285404364,15.93831999,5.508624047,9.146694145,17.20124097,12.77406094,39.67943216,14.24519874,38.23925846,20.51072748,14.33278776,11.73061303,10.1079489,2.34479955,0.798478399,1.343096413,4.364335622
3.510765669,1.174817654,1.052325874,15.78024716,4.069338268,8.751146534,16.65338599,12.63539553,41.0436402,15.67417337,38.49709629,20.92937416,14.95202686,11.7706823,11.19456178,2.398432088,1.248088275,0.969107509,4.143464637
3.602806282,1.714121442,1.230711377,14.99186691,2.992870822,9.161578127,17.14170471,13.16416134,41.24867276,17.30181923,39.08266199,23.20356744,16.665883,12.95527527,12.78696916,3.159182915,2.095879713,1.224158954,3.874299181
3.527871688,1.959011433,0.56200224,13.81811338,2.539948631,10.10590404,18.51225531,14.24874422,40.58610153,18.67547556,39.62435533,26.34905309,18.71670105,14.68370593,14.59708755,4.563707487,3.059922255,1.922562347,3.579933526
3.035685691,1.522218044,-0.739080446,12.35507661,2.441118103,11.00023511,20.22346279,15.30838726,39.96874121,19.04869727,40.06556277,28.39224989,20.10529872,15.90957171,15.7196456,5.877822781,3.501641776,2.391047301,2.985318037
2.110641888,0.441340365,-2.103079655,10.57152177,2.250352648,11.38774977,21.61693394,15.66345145,40.16515616,17.89992107,40.54665002,27.795123,20.27848229,15.97474618,15.25248815,6.245788587,3.020795414,2.002288905,1.92364074
1.059123491,-0.790205603,-3.006772572,8.460494906,1.724983983,11.20984432,22.14325344,14.94128471,41.09782574,15.37510082,41.07787859,24.62598924,19.44135361,15.09288979,13.02807922,5.351473202,1.857796816,0.656473092,0.627309731
0.303018156,-1.553681691,-3.330136348,6.198549713,0.953702691,10.75557629,21.51588442,13.26301126,41.81526975,12.28782564,41.37091859,20.57013765,18.28319944,14.11804234,9.867228668,3.661719785,0.747537284,-1.148141365,-0.368859864
0.06702914,-1.537527733,-3.372948524,4.177159891,0.214387404,10.39246321,19.81417311,11.13986922,41.22379655,9.650391403,41.00985911,17.76459093,17.38348727,13.82332543,7.118127662,2.074819308,0.348492099,-2.671161803,-0.632976327
0.237414053,-0.934765184,-3.52642541,2.857884208,-0.241899523,10.31486724,17.50608512,9.201603472,39.03492216,8.080947089,39.81491977,17.34998289,16.80819251,14.29781016,5.796027022,1.274069937,0.733919245,-3.414026202,-0.196511259
0.50524127,-0.270043683,-3.896729914,2.531351619,-0.289734294,10.47576133,15.31247641,7.941022986,36.16502704,7.524386449,38.07716217,18.83116823,16.21416154,14.94009119,5.950026208,1.2932661,1.368536459,-3.385481946,0.447143081
0.647612446,-0.021103681,-4.218421052,3.139554819,0.105327495,10.68964732,13.89388665,7.578363983,34.21148782,7.462382842,36.45005982,20.67276433,15.32048966,15.01308515,6.708973068,1.591796688,1.572049838,-3.013388271,0.714820667
0.68843359,-0.339340766,-4.131941979,4.292205295,0.928704325,10.77420553,13.49169994,8.035105179,34.33626909,7.396509547,35.55835799,21.57501922,14.28147949,14.26792225,6.945313095,1.518841745,1.065508648,-2.83065204,0.374655657
0.81417452,-1.048422481,-3.560187854,5.485667399,2.072408031,10.6199991,13.75870605,8.968834184,36.36545123,7.198304133,35.59585875,21.37735902,13.59190679,13.12065484,6.052389711,0.776212635,0.153582406,-3.171597313,-0.295863536
1.162558388,-1.843105743,-2.813996269,6.397114165,3.264128655,10.18530702,13.94083074,9.865210403,38.78648463,7.079639962,36.18456521,20.91030152,13.59161023,12.27058169,4.290585681,-0.438206444,-0.567604252,-4.032323637,-0.743966448
1.714629663,-2.464504207,-2.295291932,7.068890451,4.117516232,9.485078995,13.34126647,10.22034589,39.68554634,7.287320304,36.58771633,21.02558701,14.02833058,12.12070688,2.519763797,-1.623463166,-0.683899143,-5.100086611,-0.557589765
2.394257464,-2.714749496,-2.04939035,7.860649267,4.354361605,8.615407248,11.78124385,9.796823312,37.9955078,7.849775988,36.1527829,21.71011434,14.12769699,12.499438,1.589160374,-2.278594097,-0.206753632,-5.881706605,0.272402015
3.242916035,-2.385024851,-1.597945118,9.192516303,4.048207747,7.775803315,9.749133129,8.825441845,34.21325818,8.610506556,34.73756369,22.07585435,13.1934987,12.89088648,1.851518197,-2.091136394,0.575463792,-5.881713886,1.420254566
4.436240211,-1.279207035,-0.274870403,11.23779025,3.645350209,7.219997658,8.132626167,7.973459988,30.12752718,9.47624295,32.88487209,21.23188062,11.27503988,12.93202581,3.094948394,-0.971256946,1.434426821,-4.811368395,2.512936082
6.061514583,0.598818181,2.155610211,13.75918072,3.664578896,7.125324785,7.70721764,8.006332983,27.77124921,10.58501632,31.62910563,19.26419782,9.318930841,12.72092522,4.831307317,0.958810397,2.376957751,-2.776459998,3.366276789
7.846571574,2.850664282,5.115322569,16.19286466,4.263734035,7.463872254,8.701862744,9.294357381,28.28905117,12.17497684,31.99003338,17.43596221,8.600439614,12.67241919,6.643612377,3.340197888,3.501434972,-0.32877123,3.99056949
9.146832935,4.732034828,7.445668466,17.92716762,5.030394822,7.986723157,10.68597508,11.48675236,31.38974826,14.24110662,34.37968292,17.36674346,9.813082599,13.07021895,8.335444514,5.58100009,4.711918602,1.720709085,4.424733977
9.30943464,5.525914123,8.154370917,18.60152529,5.221145671,8.356621447,12.80339963,13.62585317,35.61525129,16.31342516,38.24266629,19.8092269,12.50475558,13.73128795,9.853307872,7.015566529,5.617073672,2.68941188,4.612634291
8.180487324,5.015746288,7.125149934,18.24726781,4.316179034,8.346549459,14.18907489,14.69516766,39.15275201,17.6304789,42.1871794,23.99755704,15.31583787,14.09439185,11.14404165,7.226428815,5.765726306,2.397644688,4.466667838
6.326739857,3.676638602,5.221458189,17.20516624,2.469021675,7.967458847,14.35326135,14.27311333,40.67872012,17.64562386,44.62159028,28.10153204,16.87108523,13.67210715,12.11223055,6.33359084,5.036190897,1.267706132,4.048321431
4.720546914,2.37659621,3.66990852,15.90363529,0.47678633,7.44561594,13.38638065,12.84808874,39.83428305,16.48129257,44.59489038,30.45068479,16.6789802,12.49073911,12.69523345,4.990865531,3.820607795,0.048913845,3.648647231
4.074454796,1.773119464,3.18216403,14.65956181,-0.737506508,7.084705827,11.93139821,11.55244392,37.22288287,14.93492784,42.35453392,30.59954489,15.39198868,11.14904064,12.94005576,4.012487459,2.801570899,-0.657375416,3.625023236
4.339726027,1.869577877,3.494752702,13.6187443,-0.74580207,7.118240469,10.93293612,11.4658759,34.05710684,13.97484577,39.2499603,29.45452408,14.27071169,10.43680692,12.97203105,3.857058786,2.472882329,-0.737367291,4.086896182
4.792986447,2.095416487,3.680824768,12.8273509,0.135032456,7.632171923,11.22413071,12.94164132,31.65244799,14.07725324,36.99751977,28.4294183,14.28059281,10.80123362,12.8680107,4.349910667,2.790393383,-0.532592255,4.703920086
4.667239359,1.849718711,2.971622506,12.32428152,1.142550967,8.558818977,13.09190971,15.3984239,30.9289785,14.90162648,36.73740933,28.32931819,15.47973041,12.05299125,12.55509799,4.865651853,3.238842796,-0.491189616,4.853163936
3.819516903,1.05097304,1.419502832,12.14958545,1.659047432,9.698051249,16.03832964,17.70277409,32.04933402,15.55343262,38.45541294,28.8143537,17.08167373,13.50257689,11.84310269,4.83048167,3.25198854,-0.803091108,4.053417314
2.873162554,0.218492416,-0.12845639,12.26707623,1.619699425,10.74828085,18.93091833,18.87206799,34.32420554,15.23981017,41.09431637,28.78794726,18.05139659,14.39514578,10.58039877,4.143303238,2.632987908,-1.309972756,2.37526273
2.698450664,0.007179546,-0.710875361,12.5036783,1.443168304,11.37929509,20.54654944,18.63439511,36.48291533,13.83966553,43.21816959,27.32961294,17.74111623,14.32602611,8.812462711,3.187500473,1.641231167,-1.72708785,0.494552678
3.655104196,0.596003073,-0.02274091,12.61140797,1.595389486,11.37201948,20.24225701,17.51013696,37.26450691,11.997184,43.75964199,24.42304888,16.13950306,13.38638214,6.819333075,2.45600713,0.71353577,-1.940781243,-0.689812797
5.236423338,1.472634398,1.346431017,12.44506751,2.181392116,10.77126115,18.33595076,16.41567507,36.07619768,10.71225331,42.41119399,20.96302216,13.67906601,12.01403539,5.007923964,2.137590776,0.096947612,-2.094538215,-0.620544063
6.429991454,1.824783357,2.381049636,12.11519911,2.892506561,9.925220358,15.91391018,16.08556151,33.34774551,10.74102924,39.55132589,18.11763968,10.88075283,10.7119696,3.742723427,2.026872606,-0.283322839,-2.389797257,0.569102659
6.508937347,1.220124593,2.413238715,11.95214778,3.30110942,9.320095975,14.15520864,16.67594607,30.32396554,12.18973074,35.92940073,16.58369481,8.149652189,9.823036254,3.223608533,1.814072973,-0.639383504,-2.807437127,2.161104622
5.599654314,-0.008489305,1.573995634,12.25092506,3.201665746,9.269056697,13.61499086,17.74295381,28.36329004,14.48588762,32.39868261,16.26939688,5.797925202,9.445104546,3.457003449,1.460107342,-1.034745754,-3.041452941,3.31735199
4.55447141,-1.016671488,0.588246767,12.96474192,2.697710819,9.666305398,13.95510458,18.53788053,28.14362357,16.65117025,29.78326837,16.53843337,4.120485988,9.458851968,4.289183936,1.286120012,-1.290719903,-2.742899484,3.561055741
4.239791662,-1.139206516,0.130642842,13.60645212,2.004131421,10.0188153,14.28941158,18.40254393,29.26976431,17.68238177,28.73918511,16.71714845,3.324819457,9.607198546,5.450236234,1.674690365,-1.176617981,-1.872184705,2.957175241
4.837140831,-0.435258979,0.298103041,13.49640601,1.205925062,9.780666665,13.85807997,17.05480487,30.53548108,16.89871739,29.4767905,16.44065415,3.322391425,9.596274948,6.59669899,2.650083212,-0.69056103,-0.829102435,1.928511471
5.733033772,0.374650799,0.613474201,12.2288611,0.233923313,8.76892781,12.51720259,14.66982427,30.66888863,14.20119114,31.45440036,15.64181482,3.604371565,9.211005409,7.380452542,3.737790713,-0.140926101,-0.203237564,0.91150659
6.067217282,0.521379801,0.49923423,10.02326234,-0.923144948,7.343254781,10.70915124,11.77913375,29.0773543,10.19298153,33.36803402,14.32795183,3.418906076,8.41659772,7.557782079,4.270518887,0.078721636,-0.320828421,0.130133211
5.455937217,-0.179383396,-0.227297877,7.666788632,-2.011893857,6.187748652,9.01200244,9.062609091,26.12811544,6.056406815,33.66909218,12.44514687,2.220775648,7.386293338,7.096801689,3.910364254,-0.16417158,-0.962995313,-0.384192714
4.279101082,-1.211067572,-1.26036233,6.041564556,-2.575709934,5.837236712,7.689193955,7.109064557,22.83201395,3.11353702,31.43737656,9.992357487,0.0905355,6.415464164,6.206848492,2.949606907,-0.588655749,-1.508030763,-0.623371965
3.315631304,-1.836901319,-2.146090595,5.556309451,-2.296309968,6.298597796,6.609078213,6.213715342,20.19591754,2.187407745,27.04643135,7.267370599,-2.223580047,5.759115601,5.247970349,2.125358355,-0.698433422,-1.400401232,-0.487834404
3.075685299,-1.735209488,-2.69708758,5.90415051,-1.334300199,7.053279929,5.541736606,6.282208486,18.69386725,3.111221305,22.06886736,4.961916362,-3.733659281,5.498967392,4.561950718,2.090072586,-0.180468572,-0.569368764,0.152650537
3.420313465,-1.223358498,-3.078950142,6.342128328,-0.335013389,7.433859347,4.499992926,6.895691002,18.16825424,4.76722279,18.36512889,3.919372335,-3.841435405,5.533952437,4.326080876,2.966584378,0.827854479,0.544675339,1.280864554
3.77941839,-0.885470963,-3.500057278,6.291289042,-0.025306154,7.08192489,3.77720463,7.530836698,18.14026275,5.749037738,16.93271337,4.647579466,-2.725543803,5.692199246,4.51224411,4.334787795,1.828431074,1.372473247,2.608903848
3.738048534,-0.962808659,-3.831278599,5.798330527,-0.683790639,6.148142711,3.648652114,7.838762073,18.23788099,5.284531513,17.3404534,6.914100018,-1.205544999,5.864593168,4.953147412,5.623795686,2.333800573,1.682732909,3.640508426
3.441653353,-1.083497011,-3.569450923,5.495846352,-1.905708548,5.117763614,4.045558323,7.82957562,18.4214363,3.787269113,18.17941012,9.748206791,-0.181316531,6.050202292,5.446607343,6.548428709,2.213958473,1.744038623,3.900740846
3.449591204,-0.600839116,-2.247299919,6.086349647,-2.869429859,4.441267083,4.552898272,7.842970761,18.88569878,2.593038342,18.19439166,11.91912264,-0.051299631,6.292531816,5.825820992,7.220856444,1.747629766,2.055640511,3.187390311
4.174058443,0.75169432,0.042321933,7.752943556,-2.914929856,4.27278868,4.774425194,8.306619189,19.76875419,3.005250922,17.22234033,12.62651323,-0.513494665,6.588736616,5.978883761,7.880969969,1.367099333,2.886192167,1.687293493
5.420995279,2.491183029,2.499585216,9.962042599,-1.996939345,4.482577764,4.733982971,9.419745415,20.91600052,5.30785325,16.20789358,11.9623327,-0.860355862,6.87217662,5.851292097,8.534171922,1.33616935,4.016301763,-0.103135934
6.462889708,3.67526779,4.057762187,11.81452982,-0.682366823,4.856469056,4.903087564,10.95632681,21.87374236,8.473717056,16.30104215,10.81810408,-0.524844381,7.084805579,5.460982075,8.854914595,1.6280166,4.900869519,-1.596297255
6.600475991,3.646383391,4.119376794,12.66654353,0.272585342,5.258369814,5.763001754,12.31804272,22.10791947,10.80893354,17.78336757,10.26063034,0.51845679,7.254446745,4.910800635,8.455423844,2.067101908,5.109770177,-2.354245484
5.732765676,2.603926836,3.008643501,12.53155485,0.414386584,5.620777299,7.255423228,12.82023007,21.30033474,11.08150908,19.71180643,10.76240046,1.754319658,7.478307522,4.358578469,7.274001838,2.561704756,4.675110411,-2.249257047
4.440054523,1.494386528,1.74865788,11.96137661,-0.210796875,5.835472074,8.636880371,12.05618993,19.5491268,9.319068611,20.58793536,11.80518322,2.48613574,7.808511151,3.938611506,5.720007208,3.193417656,4.058931138,-1.491324804
3.50441114,1.277366938,1.301966507,11.53072237,-1.243143986,5.726763504,8.947413339,10.13745921,17.37354024,6.711088637,19.52589003,12.16534752,2.277901551,8.147734389,3.689972715,4.425870188,4.087101079,3.775347541,-0.518935957
3.276803286,2.160882089,1.853108536,11.36508765,-2.355518255,5.19061174,7.769137255,7.672885853,15.52284988,4.722283967,16.98396879,10.74712319,1.190786068,8.276354497,3.564377447,3.804721457,5.201747982,3.982547519,0.207649253
3.427010738,3.438406782,2.693018025,11.09697376,-3.452192474,4.375527749,5.649773701,5.487269497,14.6627796,4.093283489,14.47393945,7.435892848,-0.295250117,8.019707055,3.523019637,3.782901901,6.257392666,4.373521327,0.427363743
3.276841403,4.063315684,2.794554145,10.2630032,-4.5964886,3.68415554,3.789709818,4.218294526,15.05484683,4.443021278,13.47691017,3.37621406,-1.570809532,7.423019434,3.636820257,3.921847513,6.884074483,4.441669011,0.20117465
2.417150603,3.484491148,1.625588995,8.781972757,-5.804835941,3.509820544,3.182465179,4.001059868,16.36564621,4.694438867,14.4092496,0.419704963,-2.193893379,6.769195244,4.0750986,3.807609782,6.872991002,3.89668486,-0.149099617
1.078312301,2.058726225,-0.430833116,7.095412554,-6.942028238,3.884438397,3.86890104,4.416012798,17.7292869,3.931790928,16.40916102,0.037617153,-2.042058013,6.395867138,4.95324395,3.368234424,6.317869641,2.900191808,-0.271198644
-0.048408728,0.721695078,-2.355482247,5.851993095,-7.816847385,4.354017129,4.905835963,4.745582412,18.10202352,2.036934208,18.0403102,2.383428914,-1.294110627,6.444719021,6.149775619,2.864167302,5.534246928,1.949162417,-0.04151482
-0.366072636,0.220202812,-3.225142891,5.413269395,-8.359800979,4.254310177,5.088726908,4.412378905,16.79284365,-0.29903373,18.30285296,6.133355057,-0.311073008,6.749083535,7.267571901,2.595578087,4.83681652,1.513490279,0.337741411
0.175034374,0.555538236,-2.820280049,5.60845894,-8.681968204,3.224800997,3.861899023,3.348470952,13.90375619,-2.087283323,17.17020213,9.23796555,0.500293057,6.961107718,7.822899892,2.610246787,4.364101845,1.707986063,0.499370605
1.09033459,1.078590249,-1.670804776,5.942411031,-8.94092607,1.559685709,1.702053323,2.057340929,10.39133217,-2.633023242,15.32980396,10.113701,0.800919883,6.821608997,7.556359635,2.670231398,4.075994452,2.228957859,0.230200814
1.787995259,1.109847294,-0.573590931,6.060708927,-9.144788165,0.080407706,-0.304742588,1.299211796,7.635957927,-1.816792027,13.47330368,8.512394751,0.409186406,6.356146689,6.632531256,2.485026336,3.885456778,2.575893314,-0.301070183
2.017328766,0.526200541,-0.016764879,6.050217054,-9.102157481,-0.415864287,-1.318634523,1.574283004,6.706544455,0.000552789,11.79202664,5.53914004,-0.632110186,5.845393835,5.555752637,1.981040376,3.777483094,2.383117604,-0.619397873
1.967762871,-0.179353309,0.039496329,6.302096525,-8.593315235,0.278256688,-1.329942213,2.739675268,7.741805057,2.236741319,10.06407216,2.875294764,-2.035444501,5.608915356,4.84687785,1.363659883,3.807642065,1.639410574,-0.307790431
1.987785391,-0.378185871,-0.074552615,7.05949373,-7.619232125,1.64543432,-1.024809631,4.042593117,9.848194479,4.283066594,8.151268134,1.777779598,-3.331838614,5.789528017,4.723469367,0.935393168,4.006413199,0.679165544,0.605885667
2.229928188,0.125795085,-0.141118366,8.066527151,-6.49094678,2.850730927,-1.099151516,4.587516879,11.61415362,5.59506723,6.371947398,2.505892133,-4.029859105,6.303664722,5.029223223,0.857939616,4.307682485,-0.015304673,1.569520535
2.560873912,0.943406334,-0.231700746,8.663926964,-5.650899025,3.36836035,-1.634111357,3.944328797,11.94325253,5.790716742,5.370048589,4.448360083,-3.827385704,6.961909989,5.453610978,1.080362954,4.585155426,-0.063832285,1.856433933
2.793713402,1.477475495,-0.519796503,8.291472965,-5.359307891,3.331047536,-2.060248193,2.474346267,10.68974521,4.821691753,5.592543101,6.706610097,-2.78246721,7.618763776,5.839927225,1.479998269,4.763062831,0.64380679,1.125060441
2.978006281,1.47384896,-0.950929468,6.988086146,-5.511766725,3.336976053,-1.713082424,1.121522882,8.703070589,3.108902062,6.85886659,8.634072669,-1.341314557,8.21412318,6.310833912,2.054217159,4.889727697,1.929134288,-0.233901426
3.425674785,1.249976214,-1.129273369,5.452664644,-5.751206225,3.894100196,-0.478749284,0.787921939,7.274956847,1.450214437,8.429019087,9.993478755,-0.173715881,8.705176639,7.109588469,2.959712408,5.100986316,3.44266479,-1.266568325
4.409637163,1.405243378,-0.576805232,4.579648531,-5.783968091,4.968049776,1.030936734,1.721009565,7.363595049,0.648763962,9.533495227,10.78184502,0.136290724,9.010615316,8.315025305,4.355289425,5.512040628,4.848134087,-1.068287414
5.804761642,2.279448176,0.835870861,4.822573235,-5.63040449,5.994970619,1.918059273,3.34690541,9.081044712,1.069575649,9.921677832,11.02989039,-0.599134182,9.068706132,9.704911631,6.204411829,6.145127837,5.978309915,0.584750511
7.032838896,3.640831097,2.674335138,5.892922554,-5.596185842,6.324391238,1.67527401,4.667794365,11.71309724,2.456195087,9.972652446,10.80481381,-2.037279557,8.964377398,10.90489442,8.238137888,6.956245447,6.880725046,3.05099461
7.426350113,4.873381612,4.170375787,7.033519219,-5.993242148,5.71015443,0.53846431,4.932081507,14.17541137,4.172414724,10.29243896,10.34931906,-3.455719895,8.962676383,11.68851124,10.12347476,7.913973517,7.727876742,5.234566754
6.749642489,5.492231965,4.753078021,7.636034989,-6.854755014,4.455259059,-0.753636005,4.093216686,15.56582844,5.690499733,11.15122591,10.08997649,-4.143872777,9.337578789,12.13767122,11.67761415,9.023916781,8.648742454,6.298496202
5.444734608,5.535261492,4.466532839,7.694364696,-7.888515551,3.129874695,-1.562708615,2.746335382,15.49872755,6.9270095,12.22347338,10.35691506,-3.832199811,10.0842242,12.48795475,12.91666994,10.2506838,9.597830594,6.16408823
4.365207123,5.495917358,3.928911249,7.73211126,-8.701668924,2.137349193,-1.807681725,1.634589077,14.12949601,8.146440122,12.81020282,10.98106982,-2.898504862,10.76646134,12.77979447,13.88609368,11.41117056,10.36129493,5.452276503
4.171593948,5.86325749,3.847239615,8.287320837,-9.096969689,1.498200912,-1.923889391,1.13165283,11.98664731,9.530303277,12.31781842,11.15578359,-2.194740359,10.70067499,12.64844678,14.44268503,12.17154621,10.70191159,4.952639867
4.844998767,6.667885391,4.45909506,9.404297722,-9.18895809,0.995748966,-2.406849289,1.088973663,9.770827674,10.81857284,10.59750301,9.81798985,-2.560819482,9.415211117,11.50335651,14.22884902,12.20304749,10.53228893,5.05237339
5.695339168,7.417251754,5.334995926,10.5642926,-9.254869244,0.498870298,-3.352399156,1.11318226,8.176750317,11.38521104,7.93426216,6.387152976,-4.299138381,7.061928816,9.016366179,12.91705767,11.39925583,9.973279982,5.551334827
5.861210356,7.468572004,5.693923993,11.106505,-9.464513652,0.141033464,-4.367313946,0.985950372,7.699982044,10.72933936,4.808752109,1.34414445,-6.931358226,4.435181438,5.536027665,10.54375307,9.974636054,9.242274975,5.950309538
4.926565138,6.527738219,4.987708151,10.7760976,-9.723824306,0.196484223,-4.884812015,0.848329127,8.424710248,8.974339391,1.714629638,-3.832330074,-9.400453997,2.527359769,2.0482927,7.634643552,8.342184196,8.461244406,5.916535218
3.205913986,4.876545327,3.312364378,9.937288231,-9.749913697,0.789573028,-4.588193934,1.009188689,9.910545292,6.920999938,-0.833466231,-7.412810279,-10.6102792,1.91448296,-0.360528338,4.968553821,6.850525784,7.553428531,5.51815443
1.515843207,3.169723833,1.351392143,9.282351558,-9.289566324,1.72672835,-3.596029725,1.586765519,11.34378401,5.559010162,-2.24461867,-8.376670325,-9.989081719,2.41789645,-1.176480727,3.122720805,5.586291385,6.331890092,5.056921184
0.630753397,1.987761984,-0.083549972,9.293453624,-8.286136076,2.618860046,-2.302262438,2.343505498,11.97755336,5.405278531,-1.994361142,-6.942516171,-7.758117458,3.288430992,-0.767074201,2.136125732,4.396905176,4.71754559,4.698323395
0.820719994,1.495440145,-0.563375246,9.909448148,-6.876194123,3.187038458,-1.058182905,2.89262399,11.6306046,6.201897848,-0.004205144,-4.339323333,-4.778150089,3.759868896,-0.087352375,1.547549263,3.100432493,2.899323897,4.274971494
1.762383907,1.430086558,-0.249954665,10.65664895,-5.267892359,3.473436315,0.022929221,3.100424035,10.87357537,7.215455975,3.0320461,-2.031294768,-2.098213345,3.544277006,-0.00041285,0.773793715,1.69024092,1.281712302,3.469700113
2.819279465,1.366099012,0.297729953,11.09932573,-3.648666766,3.767086237,1.014770384,3.300463865,10.68396373,7.873802191,5.772895585,-0.954041064,-0.476822438,2.91544206,-0.716825136,-0.465880457,0.35757913,0.239419692,2.220599499
3.447437361,1.015010353,0.528126214,11.20409591,-2.204956358,4.314310901,1.992484054,4.072925802,11.7378644,8.192290716,6.916009739,-1.218686559,-0.111234286,2.377517021,-1.745761852,-1.987991283,-0.669491261,-0.129852106,0.956978749
3.45565176,0.354237828,0.211798622,11.31101789,-1.187627389,5.07590873,2.91975818,5.722505859,13.83535441,8.630437766,6.068732197,-2.325020089,-0.653062481,2.241757839,-2.340236785,-3.324978621,-1.301092331,-0.048247404,0.391279348
3.008626749,-0.440297497,-0.510699468,11.76390692,-0.883963913,5.74464304,3.704876108,7.885216659,15.92856351,9.523728008,4.15144386,-3.568713432,-1.4351793,2.464250135,-2.050165418,-4.05744056,-1.600121491,0.14597378,0.9736374
2.447438692,-1.134647259,-1.303655436,12.55117282,-1.445136732,5.997794303,4.335416664,9.636986924,16.80149795,10.61725509,2.919838678,-4.309647508,-1.774353315,2.826222288,-0.962340841,-4.025390112,-1.630366787,0.281941608,2.440362117
2.079143411,-1.528958334,-1.856447849,13.28688106,-2.688963156,5.752065744,4.925488317,10.08767382,15.93762955,11.15045059,3.819957242,-4.037262176,-1.240386179,3.223091579,0.491646523,-3.298024294,-1.311504977,0.479523453,3.864246342
2.041921169,-1.487373298,-2.00572519,13.5473203,-4.080000386,5.198318013,5.608731775,9.034460437,13.92162649,10.46356951,6.937985168,-2.417766094,0.171970827,3.753924523,1.916604637,-2.01207669,-0.464380401,1.004055851,4.237020299
2.268014818,-0.970003296,-1.743964713,13.25523612,-4.980879148,4.603985781,6.376005529,7.163625755,12.04367348,8.625809379,10.81997617,0.519585277,2.014727694,4.526282017,3.167333209,-0.284038676,0.953979894,1.972387717,3.178408219
2.524143868,-0.098286771,-1.186228136,12.75897908,-5.043407396,4.082228664,7.021743747,5.616292729,11.3849513,6.531389298,13.35557635,4.161986913,3.540335544,5.393327504,4.246884911,1.71330713,2.637858893,3.160850657,1.232408571
2.512774232,0.808628155,-0.547381236,12.52508559,-4.458740295,3.54519948,7.265262394,5.220346504,12.07964684,5.330446583,13.15541889,7.361411979,4.024976435,5.929221211,5.061722514,3.619930224,3.98404259,4.085354947,-0.495301381
2.01703486,1.321121029,-0.10771579,12.70913241,-3.856765503,2.873912259,6.950278791,5.949655778,13.3208182,5.609429192,10.47830639,8.930810532,3.146624755,5.731784698,5.337680916,4.897994999,4.439186847,4.299324123,-1.105526595
1.037182779,1.11511775,-0.118670152,12.9851217,-3.896858667,2.127067428,6.155210412,6.997229195,14.08744476,6.954268005,7.071445435,8.374089856,1.217778462,4.813302464,4.827234108,5.058079853,3.897643218,3.676543613,-0.514047753
-0.168786026,0.183257821,-0.663652391,12.79561761,-4.828023787,1.573589021,5.133010345,7.383977761,13.98932161,8.237600423,5.05082651,6.321491039,-0.899080871,3.710632194,3.627070826,3.963219653,2.810208586,2.461923549,0.540989954
-1.201883272,-1.13884966,-1.576291872,11.8220863,-6.324708852,1.502217206,4.154718175,6.63905591,13.53584969,8.409930786,5.604012326,4.241714153,-2.197665137,3.154474813,2.272241554,1.962133235,1.865739877,1.064823885,1.073440497
-1.757547397,-2.393764848,-2.522323844,10.28113004,-7.701287519,1.976642624,3.404072812,5.072904154,13.6189394,7.198674694,8.372957349,3.511401291,-2.047565049,3.518547568,1.436080295,-0.288797657,1.457519222,-0.228498945,0.55319387
-1.835005242,-3.331289622,-3.235474503,8.793979953,-8.335887356,2.763685015,2.994265612,3.503472956,14.66212306,5.217462897,11.84586116,4.456734322,-0.519968325,4.48884105,1.415361196,-2.211509293,1.351173124,-1.400347338,-0.781395317
-1.762039061,-4.091930539,-3.747857637,7.931588904,-8.004341034,3.508077106,3.034111966,2.697517884,16.17096467,3.457408975,14.37568444,6.082306867,1.680476689,5.244736025,1.811673992,-3.623834653,0.840848455,-2.616814809,-2.191471478
-1.989997501,-5.078937469,-4.412764067,7.804247886,-6.924435824,4.00212893,3.610191191,2.940795921,17.07826695,2.583489296,15.07482253,6.736274146,3.623784777,5.037479733,1.715368057,-4.759076647,-0.698095697,-4.013990653,-3.021407081
-2.781294399,-6.59003405,-5.649373436,8.021687403,-5.54015278,4.310581108,4.64454627,3.975829552,16.59565847,2.550727343,14.04058077,5.263263117,4.630566237,3.725895479,0.321591626,-5.987589137,-3.275462895,-5.540086819,-3.122180108
-4.003139435,-8.480963937,-7.561821268,8.041273168,-4.245499406,4.64287868,5.750575734,5.237383336,14.84403779,2.758526711,11.92913309,1.815779072,4.522937608,1.860343902,-2.443153028,-7.464090338,-6.18716605,-6.962350747,-2.818146447
-5.177650382,-10.13129447,-9.719916762,7.611727933,-3.239300189,5.09681862,6.27752096,6.144200887,12.72378855,2.551260502,9.356072766,-2.256791128,3.544580591,0.268307366,-5.745155922,-8.964806567,-8.434854744,-7.998558493,-2.517800979
-5.761276893,-10.76972563,-11.30689617,6.961341146,-2.555422295,5.516427797,5.615581366,6.276562917,11.14749784,1.67074277,6.625625748,-5.332763046,2.085942402,-0.516147161,-8.268985659,-10.01594147,-9.350334055,-8.447396752,-2.343956919
-5.46748938,-9.950668513,-11.58019949,6.605433676,-2.170896962,5.603029252,3.607759694,5.452916697,10.31937937,0.380580918,3.915216933,-6.556437751,0.457011852,-0.5414061,-8.970785313,-10.1932778,-8.964497225,-8.230458652,-2.09566712
-4.422862717,-7.8568671,-10.34510664,6.954906901,-2.070306237,5.185412265,0.772298946,3.801268276,9.705378108,-0.739511964,1.613424707,-6.251074807,-1.148980497,-0.269186697,-7.665551823,-9.368462772,-7.875126031,-7.361312708,-1.532822337
-3.069016523,-5.219989106,-8.104719195,8.041340118,-2.230591089,4.404857381,-1.878286085,1.824853108,8.7137737,-1.131900399,0.385304462,-5.484350668,-2.557480113,-0.149171637,-5.087178294,-7.75333962,-6.759387485,-5.915798734,-0.687366777
-1.894167087,-2.912145867,-5.765902579,9.543362385,-2.583831832,3.640793589,-3.366657951,0.321564963,7.440351244,-0.529684687,0.805087513,-5.204490354,-3.553451939,-0.312382129,-2.425134488,-5.761354967,-5.927572295,-4.044213826,0.100762509
-1.175298927,-1.476693371,-4.095990916,11.03908193,-3.026806269,3.231105792,-3.313550274,0.03648858,6.73126581,0.929262984,2.814246185,-5.62779108,-3.968104358,-0.5997785,-0.664654667,-3.818505522,-5.237725926,-1.992027944,0.458416415
-0.879937964,-0.891949839,-3.303709281,12.24830061,-3.479157074,3.222964196,-2.168082248,1.155069992,7.41015646,2.735156677,5.477207945,-6.277125,-3.840354607,-0.821168294,-0.128963039,-2.240957631,-4.374401835,-0.069617169,0.308872265
-0.757424769,-0.694486639,-3.024145104,13.08616468,-3.928105416,3.363468644,-0.944052883,2.991220554,9.311241646,4.168193096,7.331979133,-6.523233108,-3.468640971,-0.953122066,-0.439061367,-1.19969181,-3.211883314,1.437630885,-0.05295632
-0.535320755,-0.3548356,-2.691736729,13.54759957,-4.406825844,3.329995377,-0.618506288,4.218470561,11.04335867,4.578484574,7.195194986,-6.125245863,-3.239851643,-1.088506697,-0.835961774,-0.720596584,-1.954712421,2.358823445,-0.218273408
-0.094398468,0.34863736,-2.008950662,13.58915701,-4.924476145,2.995775936,-1.559909012,3.646628369,10.87028682,3.714366396,4.914813396,-5.357166291,-3.326440105,-1.224936416,-0.635397408,-0.680677107,-0.970195762,2.661079523,-0.027386902
0.469638406,1.191750613,-1.164701132,13.14727128,-5.421276706,2.506514581,-3.322979131,1.087845553,8.130320489,1.929086768,1.551029226,-4.707152861,-3.496816833,-1.152454128,0.423946033,-0.821913943,-0.49065298,2.410029776,0.294334568
0.917736551,1.677797829,-0.657332817,12.27387007,-5.800521787,2.120088834,-4.912537352,-2.328976677,4.045338379,0.079625479,-1.174199207,-4.477611698,-3.233845145,-0.604510444,2.074248275,-0.831369817,-0.448363752,1.736817607,0.363419903
1.025786674,1.403521797,-0.874436824,11.24013572,-6.009504426,1.970716797,-5.343762823,-4.729324612,1.129848328,-0.911216672,-1.839244406,-4.628147008,-2.120679033,0.436620068,3.666239415,-0.489073178,-0.565370705,0.862379449,0.035964005
0.743422047,0.380966452,-1.754135352,10.47717556,-6.084312657,1.974497635,-4.17735744,-4.656270107,1.484878524,-0.60279286,-0.111535878,-4.933653591,-0.220124457,1.573990872,4.488730154,0.193012559,-0.597566733,0.1330008,-0.384695519
0.262441738,-0.900416204,-2.780914094,10.36515823,-6.101790631,1.951761051,-1.750655872,-2.051726698,5.203358976,0.674079447,3.0992107,-5.252140552,1.854735346,2.173135547,4.117113679,0.944582879,-0.521648561,-0.047630266,-0.34259844
-0.05948644,-1.7358181,-3.318540691,11.0155489,-6.074243343,1.838118761,0.993143962,1.652008154,10.12863737,2.021268465,6.174462495,-5.649918818,3.263845349,1.786968945,2.623906684,1.363494142,-0.529730277,0.556399017,0.507960658
0.101217333,-1.653093678,-3.042170639,12.19851097,-5.89002048,1.777009027,2.96883611,4.431476983,13.22692833,2.556506884,7.647115565,-6.313473788,3.444034229,0.493639382,0.527285754,1.127019059,-0.868385942,1.746402713,1.952395877
0.815925125,-0.770720495,-2.169572847,13.45402438,-5.374539243,2.000557696,3.465684709,4.953181922,12.6058045,1.96481734,6.881314942,-7.381244911,2.438471061,-1.142590048,-1.517168734,0.155695852,-1.669271325,2.820194203,3.287963335
1.810043568,0.187519939,-1.337763824,14.29938948,-4.43937614,2.604796881,2.46681054,3.353305661,8.710224611,0.621422856,4.243284949,-8.861756806,0.827906071,-2.472903593,-3.109740194,-1.368253444,-2.888162796,2.865557661,3.787904721
2.580571497,0.2800368,-1.211083594,14.41031488,-3.197491536,3.426781279,0.626725256,1.007267386,3.862031629,-0.77557344,0.77833914,-10.66781016,-0.661055156,-3.209019593,-4.325456448,-3.122442241,-4.353779364,1.313874004,3.203096543
2.678935536,-1.066910383,-2.073841129,13.71258129,-1.937164363,4.143520426,-1.069161187,-0.483202052,0.574094543,-1.737284468,-2.328125224,-12.66023413,-1.567686412,-3.555224991,-5.587299452,-4.810358189,-5.846285393,-1.605936375,1.91208158
1.987803031,-3.639663667,-3.655082431,12.39464105,-0.960849735,4.516031052,-1.783694271,-0.321995274,-0.042535869,-2.24424782,-4.195401316,-14.61053763,-1.845526392,-3.936276409,-7.259996422,-6.264548748,-7.141993791,-4.880889674,0.616167884
0.803315413,-6.477003707,-5.276649993,10.8651023,-0.411111937,4.572280826,-1.201331334,1.136239331,1.360754609,-2.560252643,-4.447617988,-16.13426398,-1.700411717,-4.570352919,-9.254360484,-7.441611929,-8.033205867,-7.26001618,-0.158221497
-0.343728851,-8.379646739,-6.220084508,9.64463384,-0.220513768,4.5734887,0.384115587,2.863172184,3.325722773,-2.830127919,-3.206182561,-16.74388056,-1.318557886,-5.257836227,-10.95616819,-8.34122936,-8.368817213,-7.992048323,-0.349208333
-1.010736276,-8.583157824,-6.091996332,9.175405504,-0.219652126,4.791484112,2.284370229,3.980272486,4.906234564,-2.876426751,-0.983162979,-16.08818179,-0.739731377,-5.558102006,-11.56956078,-8.918439639,-8.121640996,-7.232733301,-0.239090202
-1.086349534,-7.163038759,-4.987345008,9.597486636,-0.305291931,5.279711741,3.785843535,4.271723634,6.221650942,-2.404510152,1.470004866,-14.2410803,0.038609072,-5.185283884,-10.64650453,-9.043932689,-7.423196496,-5.819951962,-0.079207932
-0.788802809,-4.912093765,-3.379264806,10.62758217,-0.523771938,5.817715033,4.458752599,4.074561691,7.891488122,-1.415788762,3.376339631,-11.78245121,0.871548547,-4.268552918,-8.411186206,-8.530172985,-6.501103012,-4.589489645,0.179511553
-0.440823825,-2.789592723,-1.822037955,11.67142557,-1.003657941,6.060602417,4.261242985,3.774350361,10.01418216,-0.39793364,4.209914439,-9.530820159,1.420497636,-3.250253864,-5.625871853,-7.211522105,-5.533096205,-3.761319877,0.809463721
-0.2110822,-1.333729916,-0.653421207,12.15898497,-1.805712775,5.764755841,3.439048797,3.413732299,11.72268066,-0.040973482,3.932554835,-8.07404145,1.342274156,-2.518004378,-3.090160384,-5.048970763,-4.525462167,-2.868890326,1.972054974
-0.027938644,-0.438107517,0.128173165,11.90154927,-2.829530589,4.920469997,2.334696554,2.739218165,11.77680565,-0.674981979,3.018035047,-7.448409129,0.571797336,-2.098996071,-1.149717616,-2.21477055,-3.332133727,-1.266470325,3.457948633
0.279701275,0.38798185,0.750669702,11.20351879,-3.863087488,3.719058694,1.230744727,1.57292104,9.672180894,-1.930134082,2.171050225,-7.230386564,-0.558962863,-1.685356257,0.417570972,0.897603434,-1.824933884,1.216988298,4.769671782
0.753435534,1.514630693,1.412340709,10.61619812,-4.732280799,2.41734555,0.278641597,0.106055916,6.242790309,-2.976675735,1.863708686,-6.970925556,-1.507109873,-0.965328394,2.070049104,3.774962886,-0.087546541,4.022449001,5.499362233
1.20264821,2.846721304,2.074552698,10.50349305,-5.416535861,1.219771528,-0.508712469,-1.185199784,3.161301816,-3.20115724,1.999676724,-6.600928187,-1.893124176,0.034208472,4.010124452,5.975746237,1.538108311,6.215610129,5.670872994
1.334695752,3.897308668,2.467461565,10.7680582,-6.023444649,0.246408762,-1.233112353,-1.922539895,1.720244729,-2.750415563,1.989217495,-6.446100039,-1.767069591,0.899672864,5.936660536,7.317537611,2.620237148,7.161125947,5.72396356
1.021971163,4.199345305,2.323045326,10.98335592,-6.637028791,-0.437189796,-2.050552067,-2.135026204,1.933798309,-2.429543802,1.242763006,-6.827010498,-1.534351363,1.130151066,7.238540148,7.941088677,2.911133083,6.970015957,6.123872225
0.481036496,3.71519912,1.670879227,10.84340835,-7.166647751,-0.793812201,-3.053506774,-2.186083993,2.737795866,-2.972769581,-0.250673012,-7.603920689,-1.578711233,0.54028626,7.461307811,8.191996596,2.517079235,6.371541763,6.919970343
0.194253689,2.917039966,0.955576764,10.54543128,-7.332053059,-0.822329011,-4.12690368,-2.368422886,3.100220616,-4.278722954,-1.722224225,-8.110603103,-1.880017562,-0.566284906,6.657591737,8.381963664,1.822342915,6.135915256,7.648131083
0.6033414,2.476904787,0.836929056,10.7317128,-6.81761045,-0.571974286,-4.885118264,-2.542485579,3.03496674,-5.301775315,-2.030324721,-7.606895833,-1.95390864,-1.597588952,5.333318097,8.584423178,1.214418007,6.525344941,7.694859811
1.788989668,2.806478897,1.763466963,11.9656768,-5.497912662,-0.124527924,-4.801853568,-2.181570085,3.576923751,-4.786789153,-0.452751405,-5.917609185,-1.199702087,-2.090876387,4.037895398,8.604087349,0.816102962,7.194377338,6.842212179
3.373745219,3.790584927,3.606118157,14.13557598,-3.579099242,0.449914859,-3.52621688,-0.834725738,5.695375689,-2.318514751,2.697105376,-3.715912487,0.586591886,-2.024363261,2.938933798,8.138031693,0.427616012,7.565754034,5.533010089
4.727853862,4.897788567,5.639987149,16.30656375,-1.554845375,1.114721099,-1.205277727,1.368308938,9.101694618,1.164515726,6.121669449,-2.155860933,2.933321599,-1.796177264,1.732639974,7.008693006,-0.280681729,7.324728111,4.601746615
5.340956932,5.56581267,6.939174016,17.23154872,0.002805703,1.832608983,1.442267377,3.622135088,12.07240907,3.865149524,8.287150776,-2.07947918,4.895573164,-1.90729264,-0.034354709,5.305176831,-1.476804995,6.62204105,4.649685588
5.109141106,5.571681009,6.94715694,16.2016673,0.697433806,2.507626926,3.431309674,4.89644691,12.57621813,4.309667859,8.371811174,-3.392111953,5.631399195,-2.598492958,-2.490244179,3.350397656,-2.999311972,5.869978969,5.547495106
4.354776387,5.135398401,5.830516642,13.59741022,0.468840102,2.979492476,4.055604195,4.617095968,9.853775298,2.327988166,6.740983853,-5.100407099,4.954403169,-3.697135227,-5.193844446,1.543933575,-4.434222899,5.373316104,6.468875962
3.586149612,4.717480412,4.352370108,10.6809676,-0.415124876,3.110087937,3.322248027,3.055620456,5.138853204,-0.915259736,4.606006895,-6.006178852,3.464309345,-4.749720108,-7.326518795,0.200714385,-5.371343279,5.139109734,6.452154497
3.17292208,4.680125739,3.339126404,8.741373216,-1.516438405,2.906236715,1.957192995,1.122292207,0.859698109,-3.837718165,3.127926202,-5.544210467,2.152932683,-5.311301009,-8.192421038,-0.535606455,-5.649800685,4.988235167,5.078828123
3.148290724,5.041633964,3.114768191,8.223453896,-2.443897041,2.560826538,0.949127131,-0.276194453,-1.095936771,-5.556595799,2.641618335,-4.144838138,1.758794145,-5.185075589,-7.670499678,-0.719974079,-5.427207097,4.778988412,2.771910471
3.241899808,5.450076908,3.307138385,8.510916128,-3.019032334,2.341877986,0.935254045,-0.818009607,-0.672636389,-6.325575595,2.574246134,-2.870842211,2.32230373,-4.482845508,-6.302694192,-0.629939613,-5.047443314,4.455885219,0.511627355
3.088750273,5.342881808,3.156264538,8.536683385,-3.313079158,2.392009854,1.856422531,-0.854216414,0.543381704,-6.99504226,2.087141232,-2.621593614,3.244922149,-3.516442816,-4.965598883,-0.784238873,-4.822273988,3.847912209,-0.802277928
2.459447072,4.168203185,2.079431423,7.740096913,-3.543746225,2.602295706,3.111833398,-0.973692743,0.824107704,-8.010135764,0.907386246,-3.491670772,3.791665806,-2.618740235,-4.352555501,-1.865918979,-4.880688717,2.451311886,-0.880755859
1.370273285,1.563764709,0.061650047,6.602824773,-3.894143441,2.688358376,4.069943597,-1.424161549,-0.145439438,-8.82637516,-0.323530628,-4.71317857,3.663359754,-1.991622233,-4.595616567,-4.462631215,-5.164912453,-0.473525564,-0.132327969
0.030163627,-2.535406471,-2.409727654,6.314930143,-4.36257598,2.433196974,4.532552224,-1.860768209,-0.955835249,-8.251341808,-0.466131654,-5.162214073,3.226307321,-1.630230901,-5.237063467,-8.675640335,-5.536106038,-5.407811044,0.680683652
-1.310234913,-7.84106526,-4.779968592,7.807119007,-4.740250593,1.904500829,4.805969181,-1.612994756,0.328811079,-5.438419531,1.2581647,-4.035719153,3.241862839,-1.336055398,-5.529942418,-13.82669078,-5.886068008,-11.99018943,0.920544274
-2.492333038,-13.70249775,-6.854563884,10.89556487,-4.739352433,1.450102459,5.355696449,-0.248148558,4.447879374,-0.721088111,4.62713905,-1.265568013,4.295824689,-0.81770523,-4.86832986,-18.53404665,-6.172570449,-18.83121416,0.370160263
-3.480678018,-19.17821601,-8.862593954,14.2166441,-4.194213811,1.446820022,6.346947385,2.007543012,10.11211865,4.384256129,8.473098017,2.50264568,6.331815491,0.142669597,-3.113194198,-21.24277137,-6.373928522,-23.9903708,-0.767297841
-4.28644355,-23.22598841,-11.11140924,16.03363044,-3.200132584,1.990816202,7.445137829,4.301421531,14.7456103,8.005611181,11.36614639,6.234252741,8.608232045,1.524038718,-0.67052582,-20.97681379,-6.42653179,-25.8975544,-2.058353293
-4.855606951,-24.99186554,-13.53525109,15.34242279,-2.087302442,2.786954849,8.024267531,5.607217974,16.21164902,8.939035123,12.39983774,8.886403276,10.09898981,3.00387504,1.686894813,-17.86886563,-6.218410405,-24.14288931,-3.046061823
-5.019197978,-24.09959489,-15.53555895,12.49303158,-1.238202463,3.347159733,7.603955371,5.28127194,14.17373486,7.150351297,11.53415169,9.694507761,10.06338751,4.069833122,3.15595279,-13.109725,-5.661304947,-19.62115142,-3.389579066
-4.559548721,-20.80522095,-16.27528011,8.92202893,-0.868982314,3.355275158,6.173991333,3.377496449,10.09816253,3.519995269,9.351268916,8.359373426,8.421083696,4.272575695,3.248417494,-8.317158057,-4.793527093,-13.96087793,-2.956606573
-3.360882768,-15.92600183,-15.21850818,6.242858365,-0.923042602,2.908868663,4.183056952,0.580717746,6.032675029,-0.804936178,6.543086989,5.164761049,5.727885031,3.474918264,1.998393299,-4.709797937,-3.827971315,-8.650933353,-1.892143279
