Channel 1 - P4,Channel 2 - O2,Channel 3 - P8,Channel 4 - T8,Channel 5 - C4,Channel 6 - Cz,Channel 7 - Fz,Channel 8 - F4,Channel 9 - Fp2,Channel 10 - F8,Channel 11 - Fp1,Channel 12 - F7,Channel 13 - F3,Channel 14 - C3,Channel 15 - T7,Channel 16 - P7,Channel 17 - P3,Channel 18 - O1,Channel 19 - Pz
-9.430371948,-5.174535908,-1.629441716,-7.658801428,-7.192563071,-4.269427388,-1.075679912,-7.301700814,-25.21333233,-10.96573691,-21.58660851,-13.4608226,-11.33510273,-7.293259858,-10.37855646,-5.511525451,-4.33882654,6.346125367,1.163771053
-18.23363517,-13.43613525,-3.703591011,-6.90237952,-10.85642411,-7.123413056,7.008332245,-2.357786566,-4.998077884,-6.712885008,-8.44029393,-20.85098001,-11.78528004,-14.46808969,-8.883675224,-13.28335285,-14.38557419,4.892845174,-1.908249792
-17.63317522,-11.58281425,-0.173260972,-3.310898075,-8.785858188,-6.325158662,10.75743891,1.691074441,7.687075219,-1.653549878,0.560306778,-22.62625971,-9.064186019,-14.88966186,-0.431000025,-11.49943718,-14.14031122,6.946477942,-0.356522931
-8.06483258,-1.077304312,6.740524736,0.570788684,-2.137038732,-2.886428929,8.426396447,3.434868139,10.3502177,3.21301292,3.567990154,-18.15992663,-3.850650155,-9.168592345,9.783672708,-2.270921839,-5.271845013,9.879696371,4.198944942
4.336016194,11.14128811,12.80311413,2.257885193,4.952253999,0.557825176,2.082065319,2.884140961,5.82360155,7.044204608,1.924315585,-10.41509529,1.633277277,-1.636166721,15.58882577,7.663839698,4.999054838,10.37893836,8.046215017
12.12269569,17.55214514,14.69030166,1.146224364,8.354303036,1.799152792,-3.71457716,1.437437588,-0.07907452,9.506001242,-0.886186239,-3.576102637,5.283103622,2.988666712,13.97737385,11.78204496,9.294082705,6.930037258,8.196725863
11.65392842,15.15941119,12.11401498,-1.222593586,6.772545608,0.581749363,-5.054621765,0.811952364,-2.464493447,10.76325859,-1.556954632,-0.145542408,6.564234514,2.854328894,6.920520768,8.226086871,5.309340505,0.956017498,4.530013935
5.138458221,7.052474637,7.64055533,-2.606884263,2.325234907,-1.510318943,-1.33038828,1.766296397,-0.141231144,11.13560214,1.028047781,0.312180887,6.656498129,-0.222266582,-0.362808831,0.587179563,-3.016459022,-4.270582036,-0.322430679
-1.682438903,-0.490778761,4.515675456,-1.972904034,-1.375676163,-2.557563939,4.578158046,3.626991822,4.43437179,10.74734181,5.43600992,0.078222411,7.287735438,-2.733151642,-3.252871996,-5.315439082,-9.025577657,-6.073122425,-3.123074157
-4.116901241,-2.848344104,4.294553268,-0.276909193,-2.008040904,-1.879878101,8.643723266,4.974955288,7.639694348,9.509160518,9.095251931,1.020941171,9.282339985,-2.417858687,-0.781134678,-5.931469175,-8.560212696,-4.261529404,-2.426855008
-1.71328312,-0.055147636,6.066769728,0.480750602,-0.019232751,-0.420936555,8.691549376,4.892332501,7.522340658,7.453240697,10.3024286,3.11727056,11.9922859,0.200647116,4.243030615,-2.248730904,-2.776104469,-1.045981759,0.604091596
2.198089406,4.084733183,7.66334378,-0.925968311,2.176052412,0.246184153,5.763517108,3.716005409,4.913151098,5.078247165,9.305123495,4.826869711,13.97651283,2.690554404,7.816375012,1.661222917,3.384685915,0.844632525,3.422278937
3.814999947,5.621127846,7.646406665,-3.812375941,2.406754352,-0.661358881,2.930278366,2.677856362,2.265065039,3.295758854,7.764209069,4.743686588,14.26105459,2.983780653,7.811422803,2.28531505,5.46088671,0.259043741,4.181054522
2.067345474,3.651746575,6.396159432,-6.064166119,0.485036254,-2.51456568,2.667783417,2.768165777,1.444964092,2.902989775,7.208917136,2.950486883,13.10025678,1.028411706,5.174928498,-0.607716238,2.868364372,-1.719502465,2.963745571
-0.84557993,0.609920879,5.527301548,-5.798120633,-1.840358552,-3.90772615,4.958195215,3.825106352,2.351304844,3.967350715,7.830314867,0.922897056,11.65759242,-1.463323682,2.611266581,-4.227853642,-1.165738888,-2.953305618,1.312529459
-1.717888066,-0.22597555,6.321300673,-2.811300502,-2.479839511,-3.91739019,7.546820612,4.660281946,3.349155413,5.675003018,8.560449372,0.191224135,10.95805217,-2.737994092,2.153352704,-5.462166547,-2.712571078,-2.159512763,0.680926961
0.777140168,2.3690023,8.607148947,1.331012328,-0.703090801,-2.869085607,7.967742215,4.137606697,2.942103412,6.872082921,8.242086155,1.034959302,11.03658706,-2.565313974,3.724069412,-3.534330969,-0.460481692,0.071289186,1.235348468
5.060047804,6.708630304,11.00043343,4.54556634,2.424902817,-1.987162144,5.569999739,2.288232613,1.153435593,6.946349815,6.789583484,2.364510633,10.97813713,-2.294923336,5.691432339,-0.425434974,3.491961947,1.918071336,1.966047954
8.172710888,9.872403842,12.16502511,5.722798835,5.067740582,-2.291755684,1.92052249,0.481496199,-0.524878407,6.350646464,5.317255485,2.825972522,9.764868317,-3.461315343,6.603326014,1.070442137,5.770010603,1.970676468,1.842278579
8.343149853,10.23458925,11.91096201,5.275502011,6.09461944,-3.724429133,-0.592932332,0.444666473,-0.464860693,6.29168607,5.157473087,2.083793725,7.19618574,-6.249991536,6.370611244,-0.213277838,4.720066717,0.412815742,0.866656057
6.324744079,8.612674903,11.18573951,4.456807851,5.761623239,-5.229976393,-0.661789639,2.89024961,1.697476911,7.763417569,6.664705395,1.131100931,4.142759671,-9.1899332,5.884893504,-2.998284931,1.669075574,-1.232473216,0.075226482
4.481669463,7.201803243,11.06326256,4.2037211,5.165568926,-5.666542824,1.12507727,6.860615705,4.782011357,10.6691301,8.86657805,1.38410641,1.979669039,-10.31698019,5.65579726,-4.91807735,-0.467251345,-1.495073788,0.544194302
4.602413475,7.449459156,11.71634923,4.551140753,5.118743207,-4.725055072,3.084779466,10.33967513,7.073996617,13.762236,10.26089134,3.391701117,1.68754062,-8.782762516,5.011029782,-4.687230515,0.181439037,-0.230869802,2.357656629
6.431042802,8.841269842,12.30973256,5.012573368,5.495398875,-3.089830425,4.003884892,11.67032766,7.701463699,15.51254523,10.05226655,6.292545264,3.297202103,-5.547831533,2.821407506,-3.126617879,2.917438273,1.318300191,4.483653471
8.121257684,9.597722861,11.8666472,5.390664675,5.553064068,-1.772501652,4.048172494,10.68169376,7.210746415,15.2550817,8.751723519,8.46169709,5.999016865,-2.6210032,-0.865118496,-2.227742228,5.284714526,1.679802573,5.652492189
8.05037078,8.503543178,10.27152597,6.126032753,4.804286697,-1.257972587,4.305274594,8.678643894,6.918615369,13.71629331,7.636561066,8.75839611,8.705909457,-1.526250084,-3.971354242,-3.211141724,5.338461009,0.475549179,5.427752801
6.283446434,6.125490702,8.469986106,7.807272589,3.557779898,-1.207051491,5.50675977,7.35611626,7.672592042,12.47484187,7.569936218,7.319946059,10.59783159,-2.254269065,-3.49301863,-5.361394955,3.307839494,-1.236309383,4.510712309
4.409425514,4.322913104,7.676442073,10.33005526,2.628259163,-0.916209403,7.166716308,7.523721658,9.104847759,12.74890777,8.229186999,5.302379889,11.3330426,-3.4651413,2.031794355,-6.644943268,1.25408099,-1.874455967,4.028451655
3.999386296,4.549380676,8.301314159,12.58221995,2.52725055,-0.057451068,7.927334178,8.613918098,9.975970765,14.44160073,8.415825306,3.887184578,10.95949301,-3.648350042,10.72316485,-5.507204159,1.154972082,-0.693613841,4.467278545
5.149487317,6.515484952,9.554249468,13.07491743,2.928013575,0.98944807,6.772825864,9.271725043,9.245191032,16.18064616,7.158347741,3.434240558,9.755246636,-2.237587759,18.01292816,-2.247660127,3.179552391,1.56883244,5.213671842
6.416567327,8.40495767,10.06822804,11.0572582,2.924463029,1.489323186,3.99061209,8.46872694,6.914183069,16.31026786,4.619168173,3.422577113,8.13993775,0.144564245,19.61916087,1.187649625,5.634214819,3.275006318,5.106832293
6.146473356,8.413419459,8.989513531,7.16113432,1.856491453,1.033805665,1.002067044,6.237184098,3.948347187,14.05709436,1.990147201,3.073581782,6.59767873,2.330852046,14.68079649,2.747140991,6.515033378,3.170335391,3.505191099
3.95463857,6.222982075,6.594892103,2.988276739,-0.050381962,-0.08142745,-0.795526367,3.512862879,1.411596349,9.986173572,0.451819421,2.001486495,5.493503973,3.473010308,6.525613539,1.795983926,5.215905859,1.296073676,0.92461935
1.041769927,3.148317119,3.950542494,-0.040742447,-1.813767088,-1.116397224,-1.16140803,1.328407504,-0.386251678,5.459257369,0.099499611,0.341884685,4.821454016,3.431879335,0.295347036,-0.606774412,2.910364066,-1.165161745,-1.305457021
-0.876479991,0.919487822,1.983698362,-1.615553179,-2.480732595,-1.52880773,-1.140268494,0.076869408,-1.993516284,1.606491791,-0.216060945,-1.607210034,4.107627306,2.54845386,-0.827328698,-2.753706033,1.383049409,-2.885764819,-2.063242337
-1.010577579,0.25830394,0.823625064,-2.484870175,-1.878705286,-1.410218088,-2.097741113,-0.587713669,-4.130481259,-1.329003153,-1.962137152,-3.734168333,2.663783875,1.19900128,2.162853945,-3.634373109,1.45009039,-3.350835624,-1.259268709
-0.023114457,0.503180163,-0.034068167,-3.532996607,-0.684794859,-1.336346297,-4.513821902,-1.23807948,-6.865922095,-3.785525555,-5.665892,-6.044535849,0.111251078,-0.395491781,5.204675467,-3.44517264,2.377199217,-3.0281816,0.207659969
0.75765012,0.513559995,-0.973048673,-4.850693768,0.215297934,-1.792774399,-7.563607833,-2.075051482,-9.404894293,-6.088059067,-10.36163389,-8.277550192,-3.19470711,-2.02386639,4.712290624,-2.998989669,2.719593306,-2.734692801,1.268814655
0.636963957,-0.085372804,-1.687211236,-5.645184349,0.484371801,-2.713594627,-9.8041794,-2.771226483,-10.67687736,-7.837577568,-14.19026563,-9.704969682,-6.219569709,-3.317329723,0.655590634,-2.759216966,1.721980822,-2.842098683,1.537625255
0.147779913,-0.512092292,-1.379766729,-5.055900669,0.535794662,-3.549223634,-10.33438997,-2.841259601,-10.20733633,-8.079395978,-15.6521698,-9.470521606,-7.827802344,-3.873811679,-3.3620616,-2.443370938,-0.014012372,-3.005067997,1.480177048
0.425857455,0.363676807,0.426768303,-3.107558451,1.030152582,-3.785726514,-9.428299219,-2.149804921,-8.515471516,-6.144244067,-14.51730502,-7.278303928,-7.50310729,-3.620064388,-3.120957456,-1.478924145,-1.139893963,-2.556647714,1.828057231
1.996387203,2.808798506,3.230064783,-0.889482256,2.153377794,-3.427304948,-8.148353658,-1.073836302,-6.696056772,-2.43143146,-11.74133042,-3.815753146,-5.677347677,-3.02674097,2.56468692,0.254459813,-0.811209461,-1.132768985,2.822275243
4.134864773,5.778006428,5.705507289,0.267288151,3.347779563,-2.994596444,-7.343420068,-0.173405635,-5.539567915,1.602931635,-8.588011454,-0.441928179,-3.410249063,-2.862108943,10.57867417,2.187435085,0.588392561,1.032718208,3.98468426
5.417665196,7.682637837,6.634159091,-0.063625573,3.747347432,-3.037897016,-6.937653619,0.324937241,-4.926804368,4.351717196,-5.768154561,1.704781602,-1.656745821,-3.598668038,15.71323618,3.557076532,1.86419236,3.319702352,4.596905921
4.972961623,7.702178373,5.847847999,-0.941746614,2.931455123,-3.60748184,-6.111239604,0.759041637,-3.995514265,5.190870058,-3.27650575,2.479353912,-0.671908304,-4.961778,14.62503837,4.108522302,2.112459759,5.148302811,4.412053605
3.293154501,6.457137587,4.375047708,-0.741000992,1.325630385,-4.165099247,-4.170110006,1.748730459,-1.938967767,4.924833232,-0.911244591,2.728919985,0.019011234,-6.048744843,8.378943915,4.272341698,1.464631538,6.211795769,3.920934649
1.857152801,5.430544695,3.620926496,1.527675186,-0.110919029,-4.028782337,-1.316296016,3.610176491,1.204589299,5.123659677,1.148404628,3.493252754,1.107849886,-5.974110067,1.560716254,4.625798131,0.831077277,6.398781538,3.911077454
1.874299977,5.644789397,4.224908435,5.3086303,-0.648285018,-2.970479773,1.348840759,5.938329003,4.386278537,6.805266985,2.314153245,5.057711443,2.876328288,-4.531732751,-1.298943598,5.182558186,0.964991662,5.641190911,4.707098702
3.243734158,6.760165776,5.518457334,8.744985949,-0.350528632,-1.450369744,2.57630075,7.708055715,6.123403981,9.47341906,2.129392752,6.637958713,4.927575334,-2.335398082,0.882321039,5.258108648,1.774475825,3.965248072,5.779687189
4.634428742,7.380645485,6.021046882,9.893072917,0.028156487,-0.286124958,1.837982743,7.852994995,5.391455503,11.30277483,0.812415015,6.944069023,6.430884164,-0.343126562,5.186463985,4.113664429,2.517470471,1.722642858,6.095774935
4.614288939,6.287200857,4.576928972,7.981448216,-0.288082781,-0.037504145,-0.375406025,5.930813394,2.22071361,10.4097286,-0.79051357,5.145181061,6.641214139,0.809744784,7.307500494,1.802842432,2.635198384,-0.320821612,4.937390582
2.859802788,3.521042259,1.242621963,3.807546268,-1.435445483,-0.617039745,-2.99551325,2.429610532,-2.348275459,6.306033417,-1.876084674,1.460211502,5.303279872,1.112570623,5.124437611,-0.613702403,2.366443455,-1.308142292,2.50828359
0.433224794,0.396875598,-2.731885843,-0.914215067,-2.799213482,-1.42851521,-5.125207555,-1.473699493,-6.842399074,0.450868034,-2.393236383,-3.035049179,2.716749482,0.924980913,0.345266059,-1.784627702,2.513696724,-0.893441818,-0.174483222
-1.070352958,-1.531375799,-5.755115708,-4.647552229,-3.517055306,-1.883291273,-6.490153802,-4.531735931,-10.06384308,-4.550903078,-3.114616235,-7.124868641,-0.471309487,0.48729647,-3.021353276,-1.157578393,3.571322045,0.371796715,-2.006491703
-0.759893994,-1.649521605,-6.893214158,-6.739510061,-3.155866712,-1.845012205,-7.330596033,-6.033264908,-11.54473493,-6.57405698,-4.941066229,-10.06198173,-3.529852485,-0.298913971,-2.032626963,0.501451527,5.068030694,1.292409001,-2.540403998
0.945128211,-0.637245206,-6.302746521,-7.351016854,-2.008294366,-1.649299484,-7.96891022,-6.052130079,-11.59388671,-5.28743501,-8.012416133,-11.65403443,-5.822379276,-1.621422398,2.73362108,1.644340344,5.804294752,0.836926438,-2.165216751
2.763957267,0.217924425,-4.896009711,-6.899197876,-0.80115644,-1.728848109,-8.495047062,-5.232614371,-11.00672973,-2.243107243,-11.41339902,-11.96419163,-6.923783527,-3.334432979,7.563285889,1.112225068,4.832977915,-1.101194364,-1.632243526
3.59514955,0.088254671,-3.620202217,-5.610232799,-0.0956946,-2.200642135,-8.796723487,-4.279937275,-10.61267383,0.294858432,-13.77408366,-11.0927547,-6.751337823,-4.855987692,8.450163035,-1.021902237,2.316747198,-3.616495784,-1.37588161
3.262112505,-0.843841654,-2.923285458,-3.531987437,0.118583579,-2.769587906,-8.788926881,-3.482749791,-10.84341077,0.924952028,-14.28560994,-9.311833035,-5.677696522,-5.57680121,4.122947005,-3.602040536,-0.52589086,-5.472985754,-1.205119515
2.428528633,-1.712811819,-2.702611458,-0.850058161,0.333252618,-3.00150459,-8.539467618,-2.565354327,-11.4945936,-0.031684004,-13.27307031,-7.330611908,-4.472001767,-5.44325102,-3.048273618,-5.328127838,-2.362140367,-5.996227514,-0.583500673
1.895306577,-1.758792837,-2.601245957,1.921199349,1.048734678,-2.700344415,-8.16343214,-0.970905043,-11.82125358,-0.958932898,-11.83608136,-6.208556146,-3.961115166,-5.133343807,-8.822987344,-5.639177728,-2.747680555,-5.431711265,0.793744861
1.958289899,-0.847141039,-2.311790703,4.121697364,2.319613837,-2.061658597,-7.647843701,1.591927745,-10.98753466,-0.295613741,-10.87239072,-6.722295102,-4.529474869,-5.553335769,-10.05290437,-4.832263037,-2.312008904,-4.495940176,2.639634297
2.334766131,0.647906609,-1.680189975,5.343114143,3.661660045,-1.495293223,-6.851966529,4.704196602,-8.673511894,2.208093212,-10.33636484,-8.593769808,-5.787918046,-7.001995831,-6.601825352,-3.463969793,-1.998482223,-3.573198063,4.222254278
2.591434894,2.328506857,-0.665526957,5.659191287,4.35979733,-1.29774488,-5.721831956,7.249536814,-5.457716172,5.247557403,-9.376262913,-10.31133326,-6.710809441,-8.722731444,-0.984494141,-1.729907567,-2.096734579,-2.338321144,4.865551705
2.585461053,4.071288718,0.675738375,5.475823682,3.928711508,-1.456589159,-4.486240821,7.980990883,-2.639205442,6.900037954,-7.219473033,-9.929952723,-6.234268942,-9.317561708,3.708878142,0.539002922,-1.987327214,-0.196124143,4.381852315
2.514677715,5.869714701,2.129338717,5.160985183,2.41316519,-1.721422608,-3.569960301,6.350781501,-1.500243537,6.049100869,-4.013715282,-6.434294042,-3.949603579,-7.795039841,5.877901516,3.306007455,-0.84468535,2.850307994,3.123594898
2.613820135,7.479469762,3.306662651,4.815512626,0.370147611,-1.836980314,-3.232338692,3.051293812,-2.445395671,3.257800637,-0.868909976,-0.668394644,-0.416132651,-4.451549271,6.020625638,5.854812566,1.36837133,5.752863091,1.691145965
2.871752248,8.344787818,3.799745135,4.380536401,-1.411282312,-1.722433353,-3.25791757,-0.189652238,-4.638480272,0.44998531,0.951047249,4.964394715,3.130505993,-0.849614313,5.742737532,7.033285829,3.587270002,6.937076281,0.593025683
3.069060642,7.978605426,3.452678914,3.918417635,-2.2771929,-1.473018408,-3.052294014,-1.557143996,-6.480958492,-0.390785289,0.986486725,7.932169731,5.470989913,1.159883335,6.217087827,6.131712531,4.387268705,5.481005227,0.113180354
3.063762159,6.458325801,2.517854262,3.716274538,-1.993949767,-1.239994717,-2.154959412,-0.293575187,-6.676493315,1.400378938,-0.141675941,7.147757979,6.024715698,0.668196781,7.342990076,3.62335693,3.180321535,1.994558816,0.381097352
2.984054383,4.511962092,1.508160365,4.042001317,-0.848358537,-1.133532441,-0.760497624,2.736142745,-5.147109299,4.674951656,-1.362567731,3.554410027,5.024525639,-1.720995581,8.082299219,1.005963643,0.805907092,-1.611583191,1.439960263
3.093131127,3.021355181,0.816452032,4.763993286,0.474528402,-1.223524702,0.253357718,5.516244328,-3.110939979,7.20727488,-2.110068537,-0.659589578,3.222240004,-4.384194579,7.469442025,-0.258269192,-1.056834032,-3.399080069,3.159917209
3.453628403,2.338497491,0.414910896,5.248510808,1.206350757,-1.581988745,-0.0806947,6.148464733,-2.219820577,7.161649525,-2.73077153,-3.563021539,1.418277362,-5.824025629,5.392576171,0.13418509,-1.204264127,-2.762977241,5.079305153
3.758493674,2.040768507,-0.080356791,4.746249443,0.884158232,-2.266208256,-2.025152552,4.083917471,-3.364657829,4.2962019,-3.972279818,-4.558043043,0.143417913,-5.598323658,2.611415711,1.117844088,0.153905029,-0.80033421,6.419301339
3.554494677,1.387245045,-1.000975502,3.027675993,-0.385561573,-3.229008963,-4.803408704,0.457533305,-6.03425194,0.101098423,-6.029280703,-4.325052521,-0.400898081,-4.398722421,0.167118221,1.194586882,1.632190578,0.620008232,6.415664767
2.690229032,0.091884277,-2.21961984,0.736189115,-1.969201153,-4.259363506,-7.06738225,-2.730923278,-8.718942776,-3.200167811,-8.068383762,-3.890590721,-0.275250528,-3.346031043,-1.252195523,-0.246376318,1.872518444,0.344774906,4.812303679
1.561909319,-1.297887305,-3.126014452,-0.907521386,-3.074458165,-5.063003841,-7.862426348,-4.022090763,-10.06847687,-4.097121753,-8.772253692,-3.7333598,0.225931216,-3.144246922,-1.546808618,-2.354659934,0.67503826,-1.21049507,2.140702456
0.879263822,-1.805847314,-3.053936123,-0.902193095,-3.235451533,-5.461831782,-7.347841997,-3.487745188,-9.942991457,-2.721740547,-7.54213101,-3.671857223,0.56168962,-3.740612684,-1.017428793,-3.505349213,-0.905003704,-2.505150935,-0.500932072
1.111465599,-0.896493789,-1.82621946,0.819568539,-2.586088872,-5.546709971,-6.68908134,-2.600410673,-9.578816187,-0.674624296,-5.351238338,-3.478698114,0.044348048,-4.633885466,-0.039675018,-2.678332844,-1.54659381,-2.210967039,-2.088869107
2.090837518,0.962050535,0.046794381,3.316773234,-1.714420798,-5.618248686,-7.18212281,-3.091636139,-10.75912575,0.087034575,-4.433183987,-3.483760835,-1.845011472,-5.428108546,1.121883953,-0.354923237,-0.849550651,-0.324555751,-2.303771399
3.138091751,2.581211929,1.708178989,5.278410945,-1.195271219,-5.923463384,-9.278990721,-5.64196601,-14.61239881,-1.470513029,-6.899681962,-4.474447383,-5.05637137,-6.101218218,2.300659044,1.838985111,0.32293525,1.845078835,-1.684830367
3.614492214,2.985867523,2.575063644,5.897055102,-1.155974099,-6.397392498,-12.2573931,-9.350841636,-20.90310054,-4.843544867,-13.2741162,-6.91964851,-8.804595317,-6.805392167,3.336411926,2.443241597,0.630426306,2.76373984,-1.181903467
3.420047901,2.21365715,2.737302981,5.3333242,-1.218050394,-6.653397474,-14.7627626,-12.34559178,-28.27357956,-8.390009328,-22.06044281,-10.26385284,-11.87565653,-7.483761064,4.037492631,1.319521258,-0.535774934,1.909638184,-1.432637617
3.003459312,1.284942171,2.815908965,4.469610735,-0.862806463,-6.275716546,-15.77757833,-13.06187267,-35.19038067,-10.41125411,-30.71370479,-13.07707096,-13.30794547,-7.746717721,4.23488023,-0.30399406,-2.483527141,0.155979962,-2.300366105
2.893716934,1.35586737,3.416973124,4.207576613,0.078586643,-5.201611967,-15.28425813,-11.2806642,-40.8892401,-10.17807383,-37.33071962,-14.12627067,-13.0225112,-7.177402686,3.891091131,-0.893053516,-3.779246751,-0.962397954,-3.005683962
3.198975578,2.77440537,4.649587218,4.877489716,1.218535879,-3.873348775,-14.18611531,-8.241460082,-45.70879809,-8.268537935,-41.85746691,-13.56559391,-11.94635917,-5.801589525,3.211466032,0.161705121,-3.438646929,-0.44280614,-2.731363112
3.541993132,4.84286386,6.102912557,6.168949985,1.866996318,-3.003417871,-13.64803186,-5.843178541,-50.70724288,-6.084486364,-45.99737621,-13.20306832,-11.50125422,-4.26682396,2.696232164,2.17402101,-1.719014324,1.511456425,-1.232861665
3.488012556,6.474505893,7.269127954,7.53404688,1.540539336,-3.106911329,-14.40971791,-5.549860769,-56.93555918,-4.939297799,-51.96342504,-15.45490638,-12.77595962,-3.503213744,3.040714857,3.894521398,0.147745005,3.820205268,0.9924188
3.052056339,7.157704259,8.016477241,8.656615515,0.310884068,-4.15275729,-16.52689094,-7.714314909,-64.854857,-5.319951514,-60.99402097,-21.64756736,-15.91718904,-4.082797881,4.806969289,4.635376918,1.016875054,5.488380602,3.06965853
2.786118327,7.385806432,8.690622123,9.602417776,-1.280836861,-5.598284327,-19.56610174,-11.6263521,-74.14149268,-6.731630638,-72.5998719,-30.91527581,-20.10241385,-5.768794888,7.936862574,4.78930288,0.756827702,6.353783528,4.339651189
3.33029538,8.190034631,9.764786379,10.59825165,-2.647951255,-6.768581856,-22.93370944,-16.0633379,-83.81133787,-8.120702168,-84.88746777,-40.56212669,-24.04720305,-7.61703782,11.40152241,5.340807105,0.264731742,7.037895058,4.737087243
4.816801608,10.19609732,11.36008977,11.71290739,-3.54873882,-7.277592607,-26.04177795,-19.87807974,-92.48466182,-8.538699906,-95.56530274,-47.68542181,-26.67503743,-8.571529773,13.37025296,6.877118514,0.60644418,8.240055896,4.713398279
6.674473337,13.02566633,13.06538627,12.75379991,-4.12813957,-7.180794539,-28.31142699,-22.31356678,-98.71831226,-7.644734977,-102.9271087,-50.92229312,-27.55881558,-8.130292533,12.04107715,9.012032653,2.057359545,10.04971788,4.821099312
8.038241252,15.54512318,14.21603836,13.45087005,-4.624087604,-6.793915207,-29.24078705,-23.05766595,-101.4385016,-5.822514758,-106.3381424,-51.10525363,-26.98053348,-6.627825912,6.77637066,10.70717324,3.861464202,11.86296354,5.305198434
8.427155976,16.72545422,14.39092466,13.72199952,-5.051669141,-6.387237667,-28.67277853,-22.22399397,-100.4289784,-3.938150418,-106.2016257,-50.43431202,-25.70958309,-4.981638941,-1.199393923,11.14154861,4.869787223,12.91055302,5.992045193
8.105802966,16.37273476,13.70849021,13.75460326,-5.176967126,-6.033279089,-27.08546544,-20.35140129,-96.6222576,-2.920181306,-103.6451064,-50.84381931,-24.67807467,-4.123910616,-9.162525348,10.31379872,4.466608697,12.87734063,6.504822902
7.816783158,15.14257593,12.69078683,13.82978575,-4.795550698,-5.703021971,-25.54266555,-18.31912994,-91.86495784,-3.356851528,-100.1157925,-52.75495301,-24.64979475,-4.506477415,-14.26984844,8.865594911,2.991971482,12.06858,6.590348353
8.124495842,13.8970527,11.83942888,14.06264813,-4.018732672,-5.454895761,-25.13551289,-17.0346319,-88.0764184,-5.241850841,-96.91559257,-55.02346853,-25.90603226,-5.947360938,-15.14086869,7.371955348,1.356388726,11.03324964,6.293264202
8.947439118,13.01247343,11.29621633,14.30459627,-3.244067415,-5.478699976,-26.20137165,-16.94809413,-86.18420875,-7.938995401,-94.70285427,-55.97217581,-28.02205326,-7.824546829,-12.57469579,5.832424071,0.252053333,10.0457977,5.86795371
9.677304589,12.22929658,10.85566122,14.29535113,-2.784778864,-5.917204029,-27.91688592,-17.69926484,-85.52652205,-10.39505274,-93.15868454,-54.65819386,-29.90855712,-9.430595659,-8.877804731,3.866474434,-0.330703606,8.936012319,5.530945464
9.753647459,11.10417326,10.27008351,13.92000619,-2.48760507,-6.634313889,-28.69146925,-18.23211858,-84.23033662,-11.56694308,-91.11802742,-51.47597943,-30.25646397,-10.28178388,-6.265776451,1.40091909,-0.903791179,7.394632643,5.263121986
9.161806138,9.581804511,9.539325783,13.3330978,-1.739844472,-7.188992558,-27.2028793,-17.4236231,-80.44268905,-10.92165282,-87.26654094,-47.78268061,-28.27096954,-10.27162559,-5.478964864,-0.874813734,-1.849889328,5.429761227,4.811898314
8.406889878,8.134683537,8.918540398,12.83415705,0.044120579,-7.108297962,-23.37111703,-14.86361351,-73.64646105,-8.76783086,-81.06977847,-44.94446826,-24.27491596,-9.654234442,-5.570082511,-1.822224702,-2.966562175,3.523763666,3.886547845
8.003385366,7.355323345,8.653015968,12.60030836,2.80837227,-6.270795453,-18.5318534,-11.23692303,-65.14680913,-6.190279314,-73.29571517,-43.51906976,-19.70026468,-8.884083181,-4.910915515,-0.747786647,-3.587152119,2.33723125,2.406582209
7.962647885,7.404297449,8.700022327,12.50610069,5.64440169,-5.072282434,-14.62336473,-7.987346064,-57.33889657,-4.537343944,-65.65867984,-43.06068897,-16.32377657,-8.360267846,-2.551780634,1.900705318,-3.137593345,2.230776112,0.634505352
7.759223018,7.841043911,8.702897899,12.18901205,7.242761764,-4.192975938,-12.93335152,-6.443688813,-52.2138159,-4.684011491,-59.7221452,-42.52774829,-15.15444023,-8.171320831,1.121816888,4.705841952,-1.614936741,3.031388099,-0.900281373
6.817434896,7.996450537,8.250692126,11.32097729,6.739274981,-4.110226112,-13.29020524,-6.985303118,-50.10719491,-6.482884761,-55.8039812,-40.90421366,-15.72089541,-7.986812891,4.836043036,6.256020678,0.415928965,4.227973567,-1.657718375
5.083082092,7.542373045,7.203996563,9.886292629,4.336921936,-4.728601352,-14.25668797,-8.8092995,-49.53003109,-8.762678117,-52.71445271,-37.63491497,-16.31392171,-7.213388038,7.463550315,6.147427253,2.255889024,5.382854679,-1.392137262
3.161281066,6.739604715,5.814927497,8.261075828,1.216191232,-5.426835331,-14.14814755,-10.44253842,-48.16362502,-9.932631708,-48.58890536,-32.73218539,-15.09186466,-5.385542489,8.728345486,5.186756614,3.519978657,6.367799,-0.336083471
1.882588325,6.150580531,4.548895852,7.026833454,-1.225586056,-5.497784426,-12.12381974,-10.63537785,-44.3118111,-8.876128475,-42.25629208,-26.66829363,-11.32072164,-2.572906558,9.0723928,4.638388377,4.228692413,7.230928913,0.862532268
1.661244921,6.093182849,3.758643082,6.622798337,-2.257294876,-4.647430395,-8.612146163,-9.050280754,-37.85022703,-5.615318472,-34.1530423,-20.23002746,-5.892692144,0.488144455,8.976066269,5.162477489,4.542883145,7.87433525,1.454952135
2.186538134,6.33579962,3.46026372,7.040407492,-2.186541631,-3.177463914,-4.87637323,-6.351983631,-30.13587694,-1.346632479,-26.10766412,-14.3931463,-0.768852931,2.691180369,8.474096505,6.326276283,4.470652915,7.91110637,1.011584401
2.693114141,6.29777773,3.353330173,7.746160423,-1.98882272,-1.73324831,-2.146301846,-3.73399133,-23.07724349,2.180623068,-20.15370543,-10.14248102,2.246931314,3.151451303,7.321915591,7.047886621,3.854892925,6.894866125,-0.297242606
2.560890429,5.554815786,3.029937302,7.907673776,-2.518529913,-0.837730321,-0.964519467,-2.249057807,-18.06152547,3.580805308,-17.23307035,-8.166933121,2.550133396,1.731398509,5.557140853,6.527169419,2.62866154,4.741502318,-1.766495587
1.7374687,4.185392539,2.203005669,6.842446,-3.904135547,-0.575723806,-1.110383395,-2.340420753,-15.38263477,2.521626226,-16.69029163,-8.500344907,0.933000043,-0.847667764,3.773998681,4.842035023,1.034390127,1.946550921,-2.583034636
0.665593105,2.661756159,0.823265872,4.470175765,-5.533040111,-0.639135456,-1.972273805,-3.746855827,-14.35094134,-0.175663688,-16.82960252,-10.32608574,-1.075959081,-3.392385738,2.713847602,2.746164774,-0.468552096,-0.64599002,-2.380023633
-0.157334628,1.41579012,-0.927564243,1.498232669,-6.553039428,-0.640011939,-2.958215654,-5.701285392,-13.8094603,-3.028204779,-16.02996218,-12.16486539,-2.162183393,-4.880339842,2.507725107,0.941137896,-1.564928853,-2.376467971,-1.55011772
-0.565939653,0.495951266,-2.707001667,-0.832915925,-6.453363308,-0.404867584,-3.648386544,-7.243637024,-12.65499915,-4.652687755,-13.59058943,-12.47741342,-1.80761804,-4.961522654,2.363100462,-0.464341023,-2.37691189,-3.179977742,-1.056243117
-0.739209644,-0.377810753,-4.104031979,-1.377740354,-5.304152392,-0.026972642,-3.723467545,-7.528300347,-10.15690668,-4.371020634,-9.809786826,-10.43722721,-0.249371934,-4.038770578,1.167850084,-1.831753002,-3.379454054,-3.541214443,-1.800394184
-0.89271298,-1.440266235,-4.760653421,0.243511364,-3.563457562,0.309341296,-2.913780313,-6.091477717,-6.110527044,-2.385414725,-5.448452874,-6.447312725,1.939978506,-2.935662387,-1.381200391,-3.392446659,-4.964289103,-4.043105547,-3.942995382
-0.994027756,-2.562648024,-4.522936608,3.360562991,-1.69847704,0.529160639,-1.125954849,-3.043091435,-0.915097474,0.479271493,-1.144557149,-2.03715196,4.218473998,-2.40251161,-4.137388508,-4.812502692,-7.01757353,-4.895518195,-6.658025718
-0.790423091,-3.299903464,-3.55481927,6.594377869,0.055523167,0.706321422,1.359838877,0.912839336,4.464724649,3.250350076,2.771688453,0.90795161,6.173399147,-2.753767129,-5.094302141,-5.394216193,-8.896398935,-5.828093104,-8.555836084
-0.112851329,-3.262627684,-2.307715646,8.659420726,1.672151433,0.939403869,3.881407308,4.724500212,8.789819985,5.230194284,6.080560878,1.221090427,7.483219593,-3.787210105,-2.926897255,-4.756217982,-9.859118727,-6.400703495,-8.550093152
0.856322767,-2.470492019,-1.306005754,9.116742006,3.172518505,1.225168124,5.706463382,7.465572237,11.10630418,6.196793936,8.473694965,-0.78635458,7.988404313,-4.94741518,1.716005901,-3.344167661,-9.61250723,-6.425766076,-6.603699977
1.63329509,-1.367319448,-0.854784514,8.560283721,4.529537806,1.478254758,6.497580221,8.804830558,11.31979778,6.366062656,9.672938732,-3.391795726,7.907687104,-5.596527993,6.329928553,-2.240135347,-8.532774253,-6.123437745,-3.825455738
1.780905795,-0.49260834,-0.872564199,8.101610077,5.709709427,1.679381616,6.574238382,9.1693982,10.376504,6.210444419,9.799117757,-4.406417014,7.949526148,-5.269788642,8.180483674,-2.365282708,-7.389257827,-5.893550835,-1.809532125
1.252920803,-0.108341546,-0.987092643,8.531341528,6.746737534,1.982759285,6.72969394,9.454539437,9.819336384,6.252099944,9.59956254,-2.482163483,9.039585349,-3.851060608,6.278512125,-3.736382631,-6.80664229,-5.936770391,-1.633009544
0.431675592,-0.094845673,-0.834490667,9.782524448,7.707327051,2.632482126,7.698385464,10.43578127,10.9200746,6.906845911,10.20403357,2.032228318,11.69989944,-1.633445094,2.168169692,-5.420328681,-6.890942403,-6.076349833,-3.178766093
-0.168973795,-0.158678023,-0.331608225,11.08774825,8.546538821,3.719501769,9.650385559,12.26385332,13.94314693,8.396574219,12.47952525,7.277148406,15.50461224,0.767532506,-1.135103624,-6.23744064,-7.269694653,-5.926319245,-5.239979336
-0.27234264,-0.109586737,0.294722349,11.67405343,9.006148812,4.987976117,12.07544199,14.38132973,18.05419682,10.71194416,16.43532209,11.04579879,19.11221914,2.651510138,-1.269650169,-5.622391978,-7.437297849,-5.225884725,-6.328950725
0.026940057,0.065611027,0.737129269,11.41325226,8.710361938,5.897989962,14.12265902,15.90712951,21.93662738,13.60484717,21.14339191,12.1887287,20.99571644,3.542978271,1.912925709,-3.932612557,-7.079206657,-4.019841369,-5.634703916
0.439189603,0.36303013,0.890541764,10.89373046,7.439202515,5.952755732,15.12884304,16.20903337,24.65895868,16.61015777,25.26130095,11.31483021,20.43042771,3.412787338,6.514229518,-1.996898692,-6.145251574,-2.535017825,-3.490145457
0.76431993,0.925505976,0.936541652,10.86998447,5.370730566,5.064907419,14.96256145,15.27193807,26.16259425,19.11732345,27.79078574,10.2944532,18.0264693,2.661921555,10.2471421,-0.363252563,-4.723836991,-0.912899204,-1.07151584
1.013898327,1.967308978,1.151232253,11.57084367,3.067752387,3.672976746,13.9927054,13.64561942,27.05826291,20.51303216,28.54901294,10.8981559,15.37483454,1.853863572,12.18158992,1.061772242,-2.945891092,0.893989902,0.411116109
1.286674239,3.473382157,1.603469346,12.46212537,1.177601812,2.492552091,12.78318934,12.06687984,27.97005023,20.38432162,28.0820509,13.52487976,14.02368796,1.360968751,13.18154701,2.685875575,-1.054559131,2.919356794,0.450883912
1.561673329,4.961814011,2.010835886,12.66483346,0.054022108,2.063936389,11.77513476,11.05005064,28.99643234,18.71576904,27.17836249,16.91862913,14.50751552,1.168574513,14.77946572,4.570921455,0.472393509,4.860599259,-0.566965152
1.640987097,5.608424274,1.888606066,11.66489054,-0.415768292,2.41630253,11.14492175,10.69317047,29.70519572,15.97045764,26.38770841,19.06176283,16.10829344,0.976260509,17.53219381,6.10468456,0.990366121,6.00030419,-1.77312145
1.307478043,4.737629129,0.88012668,9.704701599,-0.658978914,3.081062464,10.83245566,10.73436177,29.5925776,12.96005359,25.84856773,18.58259079,17.46858051,0.513503472,20.28107844,6.360132342,0.039113062,5.56835353,-2.453205042
0.536861976,2.338608191,-0.987643797,7.534562404,-1.080558972,3.427684579,10.61546909,10.71840131,28.54573411,10.507037,25.41790345,15.66005939,17.55032429,-0.181389061,20.92914844,4.858037587,-2.23584531,3.347745086,-2.446048105
-0.453167683,-0.80930631,-3.302866675,5.76890813,-1.81319322,3.070431092,10.15406384,10.13570391,26.88691852,9.043603341,24.87725602,11.8120763,16.2304522,-0.745072914,18.07666918,2.062566501,-4.966986254,0.048369624,-2.075951113
-1.367757389,-3.534511842,-5.485063633,4.43553638,-2.718645794,2.07169367,9.0559342,8.528857826,24.99653161,8.382130496,24.02879143,8.79715033,14.17488677,-0.756282724,12.19090417,-0.843723912,-6.953692803,-2.922806116,-1.768434737
-2.045941845,-4.917678159,-7.027222434,3.118064201,-3.568525271,0.843471585,7.050749888,5.653756305,22.92084278,7.839496625,22.69815972,7.487679799,12.21569254,-0.082433557,5.426796619,-2.737108175,-7.35626399,-4.227460081,-1.705282966
-2.50357298,-4.722153223,-7.607578075,1.539786459,-4.188243124,-0.133075062,4.245570309,1.71367653,20.38884778,6.694612225,20.78601772,7.516275251,10.78831263,0.962732132,0.316364162,-3.245222743,-6.209228893,-3.397305951,-1.776519111
-2.771672902,-3.344316723,-7.081161091,0.019537797,-4.426353035,-0.557439947,1.272136231,-2.484370766,17.26555096,4.718797021,18.42142248,7.836160201,9.830837255,1.774231091,-1.641942187,-2.814599278,-4.363830989,-1.103106763,-1.800627703
-2.71950673,-1.413598467,-5.476768898,-0.66638119,-4.02892448,-0.393978931,-0.881850582,-5.678433597,14.01652401,2.418777348,16.07563722,7.629492617,9.093871664,1.812188922,-0.550146394,-2.173488203,-2.894134386,1.305436036,-1.763187445
-2.090382976,0.57827619,-3.070664325,0.063099295,-2.634333722,0.193896269,-1.365746268,-6.679348477,11.68152357,0.782590721,14.4330113,6.810227261,8.478566243,0.908157886,2.324065637,-1.722780515,-2.412645529,2.654069924,-1.843016865
-0.772496543,2.337815443,-0.449176286,2.006448016,-0.008488121,0.956248498,-0.005869004,-5.039967744,11.2610341,0.65553468,14.00408915,5.813676837,8.083810711,-0.673487009,5.411933251,-1.3983048,-2.797488113,2.577564292,-2.21425355
0.933685993,3.570158574,1.60498982,4.228727308,3.614977739,1.640215233,2.509246776,-1.414535653,12.974341,2.169448493,14.75662818,5.023290532,7.997057686,-2.421272194,7.478003395,-1.066704166,-3.487912159,1.504186682,-2.827045662
2.343094269,3.816704443,2.447204789,5.780060685,7.401621188,2.049259381,5.012561866,2.731079924,16.04833338,4.664001011,16.13515877,4.473438854,8.143560675,-3.843447813,7.839121038,-0.99886035,-4.049400352,0.067147067,-3.390499402
2.765917999,2.569276002,1.939343988,6.506910648,10.20761102,2.114958854,6.624850547,5.974678821,19.31482964,7.212720395,17.57779608,4.142068253,8.439315842,-4.630521678,6.435724967,-1.887445805,-4.521629494,-1.550923136,-3.596739623
1.971245639,-0.39203494,0.55081513,7.24410057,11.18779067,1.969249549,7.396433909,7.830374996,22.2060377,9.40117445,19.18573423,4.513413681,9.140133278,-4.650137081,3.985431732,-4.307019602,-5.28425237,-3.803650462,-3.401010417
0.352519588,-4.730427915,-0.955413941,9.159774007,10.31698314,1.939476873,8.340969966,9.041862852,25.32001978,11.74807328,21.94775531,6.735468267,10.99076,-3.856186954,2.033818129,-8.058883259,-6.600243507,-7.33974137,-3.107229541
-1.361916683,-9.60737365,-2.067338887,12.73525486,8.421062335,2.399201149,10.76537951,11.00298523,29.97954158,15.35071008,27.15493849,11.9760113,14.86094721,-2.242662362,2.480685593,-12.00028915,-8.257692583,-12.26987986,-3.160409111
-2.627456292,-14.03811091,-2.884441109,17.19371947,6.646435073,3.514615307,15.29209942,14.64454193,36.98870855,20.89390131,35.25753975,20.29770013,20.98491525,0.099726729,6.499182733,-14.57875688,-9.620245525,-17.71069578,-3.789942503
-3.403762505,-17.2734285,-3.979667593,20.85474953,5.718565031,5.045257461,21.21494433,19.54702094,45.49995996,27.70213178,44.95672434,29.92397517,28.34203841,2.881901812,13.45429438,-14.70652701,-10.03281579,-21.98680663,-4.778399972
-4.018487439,-18.93962918,-5.834177699,22.16237876,5.517312367,6.370539415,26.64400945,23.93733782,52.94571028,33.60984731,53.31928917,37.64512038,34.74414238,5.58434888,20.77136872,-12.32740541,-9.238142617,-23.41120181,-5.541798873
-4.714670721,-18.91477243,-8.28170577,20.61880122,5.27528289,6.780484395,29.39816563,25.64430166,56.27064612,35.93439783,57.07131315,40.34225474,37.75053752,7.566416196,25.20501677,-8.286526301,-7.481526145,-21.16588384,-5.473371207
-5.300567272,-17.16147375,-10.42775121,16.97021275,4.244520526,5.876636731,28.1308423,23.42236698,53.73378071,33.05498266,54.3816768,36.75019371,35.92989283,8.289069118,24.86695752,-3.678056766,-5.269923403,-15.73985581,-4.312002279
-5.228413898,-13.74147323,-11.15237585,12.610626,2.32856377,3.82771705,23.03580213,17.77953564,46.06868666,25.58347677,46.01242658,28.30467776,29.68984986,7.544568933,20.58013598,0.771343935,-3.035719651,-8.674889479,-2.293149656
-4.045822982,-9.006795062,-9.843591214,8.753298663,0.207907203,1.304134663,15.74859517,10.76221969,36.18184617,16.27554312,35.04724872,18.46710486,21.14001282,5.576677466,15.41688443,4.832738943,-0.990178383,-1.804061589,-0.011030231
-1.830529166,-3.730773073,-6.820234634,5.991483417,-1.129851406,-0.873582354,8.541401893,4.836182101,27.56174031,8.620252279,25.31263478,10.91269005,13.06914287,3.026478895,12.57775105,8.437007652,0.767901233,3.547098435,1.881476546
0.768713688,1.051113874,-3.145215932,4.425604205,-1.103461746,-2.148724319,3.291672567,1.580192488,22.44011006,4.940877514,19.45386866,7.697523357,7.659847805,0.713856461,13.10122826,11.28788585,2.07421195,6.958421916,2.934942207
2.920693954,4.465620716,0.000436684,4.015958052,0.02554442,-2.451571472,0.771834116,0.990161854,20.86665215,5.203106351,17.82695305,8.483499594,5.665878559,-0.668750955,15.1482285,12.83813105,2.686191361,8.768758349,3.00852481
4.103534488,6.198812018,1.903670366,4.700797656,1.299713365,-2.122501683,0.561537752,1.749595654,21.17266839,7.277523319,18.79194675,11.16126015,6.412641046,-0.830648334,15.47518587,12.66552815,2.482017586,9.587179321,2.237514465
4.311225575,6.554731798,2.480180659,6.171691466,1.681425242,-1.628514353,1.51363921,2.190311599,21.34186785,8.437430745,20.06618044,13.32065351,8.452748767,0.000725136,12.02451786,10.89979381,1.681102298,9.834799684,0.952391683
3.86469247,6.130854058,2.012579027,7.64435121,0.710055481,-1.280954164,2.438497392,1.280564874,20.27556623,7.066450803,20.1669532,13.58210751,10.38616199,1.198279748,5.654340419,8.297818176,0.839104336,9.599259691,-0.399421885
3.067735241,5.384051814,0.800240535,8.04381746,-1.223328987,-1.121144751,2.633540839,-0.938107887,18.16862919,3.468112407,19.04414015,12.05016288,11.40136649,2.058315702,-0.344331853,5.870640507,0.552406767,8.820094678,-1.351830991
2.047506875,4.441254464,-0.948867231,6.635761863,-3.123635142,-0.998331668,2.047255584,-3.60771883,15.95149284,-0.649225916,17.65893223,9.81969611,11.38561347,2.174091538,-2.598348016,4.342564861,1.066254825,7.582334881,-1.571500994
0.889664993,3.27399143,-2.957538782,3.640953153,-3.963474228,-0.738577523,1.096731381,-5.699200143,14.40609428,-3.506933043,16.99618499,8.051427371,10.72745842,1.647114562,-0.089078282,3.842437871,2.085837857,6.243152807,-1.021315441
-0.144169818,2.018577033,-4.720426148,0.25914305,-3.217539991,-0.276889017,0.31965955,-6.578651979,13.66702847,-4.39921729,17.29536267,7.274444989,10.02127059,0.994564815,5.157822382,4.010386908,2.946279722,5.276449329,-0.01768995
-0.623020809,1.094168102,-5.621789015,-2.041072402,-1.081995973,0.310223802,0.071007454,-6.199607682,13.3793042,-3.889359347,17.99951674,7.272508497,9.804555415,0.794300553,9.603281546,4.366661971,3.027235945,4.963010477,0.91265863
-0.251178046,0.970118174,-5.313750642,-2.484754343,1.67335253,0.852036478,0.393976828,-4.942937433,13.21736345,-3.076889243,18.33063305,7.461356922,10.35873258,1.290446914,10.73608498,4.626439674,2.124162913,5.190088973,1.332603596
0.790268823,1.778261495,-4.035463535,-1.460283099,4.076581833,1.156917273,1.076353637,-3.332768497,13.23550589,-2.631315427,17.96159729,7.388818632,11.58673324,2.226189836,8.712030555,4.762306781,0.541694898,5.545302297,1.161570912
1.827357326,3.13360459,-2.54140835,-0.114808056,5.343180987,1.078232428,1.815772761,-1.83693839,13.75553054,-2.37079838,17.26112832,7.016049875,13.02217753,3.025602387,5.950635802,4.864470426,-1.109477178,5.652632362,0.707003732
2.10704124,4.356425017,-1.622960253,0.596213051,5.134848227,0.57054635,2.391591137,-0.796305009,14.94796893,-1.641877326,16.97382081,6.664828242,14.02377762,3.203467027,5.127814534,4.988898039,-2.238338376,5.488748393,0.417873784
1.346575204,4.930392335,-1.576915086,0.622537617,3.632439121,-0.264881284,2.766802232,-0.396985093,16.52821361,-0.087128662,17.63297256,6.743432715,14.11144512,2.716078403,7.145314971,5.11723739,-2.517757234,5.410163483,0.537159271
-0.043202493,4.812920201,-2.056177271,0.712650284,1.433704133,-1.170807075,3.090036804,-0.612522129,17.86254197,1.888916921,19.16521295,7.456630674,13.2704274,2.004093887,10.54467971,5.192182964,-1.958551188,5.837770577,0.924969563
-1.278770098,4.339831996,-2.436218862,1.599501959,-0.68091429,-1.796904687,3.608990766,-1.154958949,18.40092673,3.339439462,20.95003042,8.657384514,12.0131718,1.696747726,12.66245918,5.122783715,-0.855375077,6.825587353,1.198823467
-1.825685001,3.826867094,-2.395325255,3.192532845,-2.043867169,-1.837589684,4.53349623,-1.545822954,18.06344403,3.466683501,22.23355193,9.887117575,11.11283124,2.184243907,11.5610312,4.737425282,0.317180146,7.860513289,1.080267656
-1.805357535,3.239065636,-2.217370966,4.484624617,-2.355656773,-1.186871377,5.901859009,-1.355177255,17.248234,2.189606019,22.55465336,10.55650162,11.14005583,3.348303809,7.337461727,3.781394047,1.030144389,8.088629839,0.657646547
-1.842642451,2.230167194,-2.557168413,4.274964758,-1.790166607,-0.016520606,7.509143138,-0.500804126,16.45277339,0.127322275,21.88708422,10.17320975,12.0875146,4.617650638,2.00467202,2.051638166,0.861771244,6.84267092,0.331733778
-2.489920049,0.509307851,-3.868138952,2.117368655,-0.890075776,1.28638461,8.942797802,0.605967493,15.82470005,-1.95316053,20.46318279,8.523172695,13.33135544,5.289645008,-1.817365952,-0.388390859,-0.323780682,4.100326709,0.469670057
-3.733461853,-1.814093569,-5.984472917,-1.287085631,-0.292156455,2.302198702,9.730715543,1.220096995,15.01409967,-3.737245277,18.49511388,5.743435877,13.96919756,4.900703807,-2.456875178,-3.113798688,-2.273964898,0.532588929,1.044197248
-5.017124275,-4.242888299,-8.220689474,-4.572193111,-0.416971128,2.781297109,9.547408135,0.674593387,13.44926771,-5.515596584,16.05287762,2.273727068,13.33308018,3.435602117,-0.071765103,-5.52338509,-4.429286493,-2.905956552,1.566221159
-5.761990422,-6.273200323,-9.910345379,-6.667941961,-1.281068232,2.750147457,8.377276855,-1.207127137,10.81596422,-7.799389217,13.18082269,-1.278833322,11.36758205,1.301506189,3.507547251,-7.234374897,-6.19628971,-5.557350169,1.393515016
-5.917928713,-7.811620062,-10.93103967,-7.477011156,-2.520346681,2.465580847,6.538900989,-3.97599392,7.363883439,-10.7624176,10.10204703,-4.304406354,8.655314879,-0.866515641,5.74050809,-8.389854108,-7.267985583,-7.402941483,0.195477444
-6.046543777,-9.246364971,-11.77333864,-7.767396237,-3.593879187,2.256013967,4.543927666,-6.796558359,3.809308354,-13.99276429,7.275234023,-6.337298311,6.093709144,-2.450383386,4.611404662,-9.588175719,-7.778688442,-8.945512686,-1.77855086
-6.841095397,-11.08321639,-13.09271248,-8.42965342,-4.044914317,2.350016513,2.863921933,-8.899476483,0.920701932,-16.73922854,5.202702108,-7.163930414,4.429914336,-3.059772531,-0.385892399,-11.42039356,-8.174921696,-10.74947656,-3.831238063
-8.483740588,-13.43626896,-15.10858293,-9.727216115,-3.683919121,2.785006082,1.741158493,-9.943259403,-0.892844731,-18.40445518,4.124679315,-6.882206259,3.923406626,-2.669039016,-7.88783273,-13.93577971,-8.884042739,-12.99003771,-5.24445324
-10.39145187,-15.79666493,-17.3298195,-11.10816714,-2.622921025,3.427061431,1.153332313,-10.0619111,-1.69701093,-18.84943136,3.864736594,-5.888661954,4.306990963,-1.6444573,-15.11123172,-16.4551576,-10.01014842,-15.31705109,-5.679278948
-11.57858199,-17.27680365,-18.81154734,-11.64799296,-1.179254566,4.065750344,0.93771731,-9.613099461,-1.806356682,-18.28081329,3.99042874,-4.757780841,5.032688971,-0.614433649,-19.03104455,-17.90836521,-11.26097951,-17.07617779,-5.272074852
-11.34893593,-17.14364464,-18.73031678,-10.70490774,0.275974197,4.517955213,0.970562438,-8.851510725,-1.434469339,-16.88790647,4.191674444,-4.008688458,5.633586322,-0.175900944,-17.84178583,-17.47021114,-12.13202329,-17.67423809,-4.408563238
-9.766174732,-15.24076354,-16.84916849,-8.281571358,1.44659295,4.690012204,1.266066621,-7.776983494,-0.510709864,-14.61521043,4.573807815,-3.833669963,5.987845005,-0.541577831,-11.97265083,-15.03812766,-12.19233681,-16.82386647,-3.406079983
-7.55313269,-12.01964826,-13.57977503,-4.908913079,2.174698495,4.584818591,1.931848427,-6.241165529,1.204355105,-11.30506984,5.599493779,-3.93659224,6.347735945,-1.337516455,-3.99945656,-11.2258449,-11.27440066,-14.56301492,-2.368474003
-5.5465408,-8.225482887,-9.682082748,-1.266940609,2.437989803,4.270466546,3.036375832,-4.183774109,3.822998696,-7.070719273,7.687268651,-3.619180409,7.139961778,-1.739281896,2.6542308,-6.927878108,-9.483998909,-11.14804214,-1.287454435
-4.168469148,-4.52083401,-5.878560091,2.111100929,2.306674502,3.83615785,4.510638616,-1.781691529,7.112476629,-2.514325397,10.77242465,-2.129654941,8.669610128,-0.946027863,5.57076398,-2.820800854,-7.098652919,-6.980638092,-0.231121557
-3.301206837,-1.299729007,-2.631895289,4.895928383,1.892474199,3.355406289,6.166092018,0.609588304,10.54117573,1.478107117,14.20402467,0.884973686,10.90148446,1.260281347,4.642734034,0.83869794,-4.47734477,-2.614974853,0.60496135
-2.570723109,1.280082868,-0.126426492,6.895696672,1.315947323,2.86760725,7.80079835,2.657438128,13.55725593,4.250901031,17.10772442,5.081844237,13.43364311,4.244120049,1.987344275,4.050487528,-2.028845791,1.260122103,1.055175395
-1.713792197,3.200991462,1.670059709,8.054054745,0.703524572,2.38205406,9.286161837,4.219758491,15.88355421,5.786355482,18.96467221,9.478431289,15.66158464,6.769193231,0.50390334,6.780831554,-0.177370234,3.988348846,1.197462768
-0.7049817,4.5591489,2.967999778,8.537930374,0.205149328,1.90108021,10.55270652,5.35201991,17.60413377,6.651658448,19.95159704,12.86181229,17.03165172,7.673550304,2.005591411,8.844416705,0.753339705,5.238304885,1.390258126
0.39085461,5.57970387,4.111619318,8.753692897,0.004705433,1.449629006,11.50323435,6.181720406,18.98636552,7.514701674,20.74657407,14.3418845,17.25570437,6.561254379,6.132175276,10.04586147,0.716397688,5.220292346,2.043909259
1.599145458,6.545223876,5.4349507,9.150264223,0.292009444,1.092005403,11.9703198,6.791275527,20.19064028,8.629625989,21.92663177,13.75655785,16.4077882,4.062903409,10.6982554,10.40070251,0.040896449,4.608763678,3.282176396
3.009120639,7.595145236,7.024530776,9.894638579,1.186702177,0.92028843,11.80748894,7.219072558,21.10342624,9.71734069,23.4335063,11.72710989,14.89709647,1.486785333,13.15615117,10.18324969,-0.684421628,4.146439411,4.772977824
4.557114779,8.539374478,8.557032526,10.70195587,2.643620745,1.014254506,11.06855883,7.547928739,21.4248701,10.31376718,24.56099287,9.35515693,13.35219085,0.080860409,12.15486219,9.7264398,-0.933628843,4.169067996,5.890440219
5.87564651,8.899524693,9.408454545,11.03336283,4.400483775,1.391296478,10.10604053,7.941510558,20.93421983,10.23953009,24.51125477,7.725379421,12.44461986,0.371201152,8.21833682,9.147840252,-0.579985538,4.392885367,6.104271333
6.433549336,8.230893383,9.044330389,10.55883381,6.023958377,1.974312832,9.43708341,8.528803455,19.7106672,9.739457774,23.0911791,7.444928383,12.66473494,1.966186474,3.24383015,8.258058421,-0.000353998,4.139132949,5.303935573
5.909940348,6.507979932,7.437641629,9.501314183,7.062049442,2.599213998,9.40206892,9.202127761,18.12079399,9.155161058,20.96936969,8.407842517,14.08719474,3.886947684,-0.704893751,6.74768511,0.154550282,2.846310007,3.817604328
4.48496246,4.237851529,5.17262183,8.522293605,7.243388155,3.065228035,9.84603961,9.532663938,16.57267438,8.453519912,19.2395875,9.870125798,16.22639572,5.150365954,-2.493489422,4.49780921,-0.615590406,0.497012959,2.135825689
2.759871308,2.150296735,3.100773294,8.185290495,6.620536339,3.210695459,10.10294869,8.967761948,15.23208211,7.113797101,18.59744298,10.80460702,18.11560033,5.222400301,-2.316459133,1.748385794,-2.330862765,-2.352185589,0.583657278
1.334556047,0.674236835,1.776152377,8.43002715,5.568423608,2.983671806,9.378493752,7.252139653,13.93907175,4.583242514,18.78039409,10.39627915,18.67206563,4.121402306,-1.338674908,-1.014628943,-4.51824665,-4.945521147,-0.795000519
0.388762705,-0.370004554,1.104177946,8.538368483,4.619960615,2.474896727,7.322244876,4.780058556,12.41042751,0.975052752,18.74733821,8.461094467,17.23523287,2.226355119,-0.932060652,-3.348908994,-6.506295219,-6.809550295,-2.080904067
-0.369072772,-1.575965853,0.49204769,7.690329675,4.211367182,1.891699781,4.38915977,2.552952081,10.57813365,-2.622757979,17.49788817,5.570750447,13.99606498,0.015898215,-1.955952656,-5.076971558,-7.802959163,-7.97704965,-3.234277155
-1.339011866,-3.38212643,-0.61165817,5.697384965,4.467012219,1.474372747,1.687867829,1.661106017,8.783262187,-4.624542135,14.90723582,2.785993364,10.02253334,-2.073998069,-4.377755727,-6.272390585,-8.297486171,-8.806993216,-4.013074092
-2.580454217,-5.594724038,-2.224761416,3.303449775,5.141069202,1.385958954,0.357829054,2.575095139,7.634114208,-3.978075193,11.91240196,1.116304167,6.790151196,-3.657802594,-7.32346228,-7.057490408,-8.185619658,-9.574058524,-4.144549592
-3.691235927,-7.421492336,-3.789575768,1.756449267,5.753409345,1.628744507,0.866418157,4.739500615,7.593461792,-1.00112219,9.880172365,1.01275314,5.441204736,-4.393356421,-9.496285909,-7.4101673,-7.72878279,-10.16710026,-3.596234007
-4.138804241,-8.020804167,-4.611122829,1.937665889,5.851518274,2.038194227,2.702813969,6.815140617,8.590270282,2.671723094,9.63033787,2.211694512,6.202659799,-4.065435304,-9.791008139,-7.143091794,-7.054528613,-10.1282735,-2.687804138
-3.753253401,-7.131864403,-4.404986481,3.710540587,5.257793848,2.369042393,4.687469696,7.483243218,9.969080873,5.094772008,10.86376989,4.028627649,8.320973594,-2.733579684,-7.834290707,-6.051282852,-6.129392441,-8.98650709,-1.915459954
-2.930261161,-5.268861629,-3.497502303,5.997108078,4.165899281,2.432747126,5.692614764,6.305896287,10.86208062,5.294252543,12.42801045,5.882616221,10.54780249,-0.804743907,-4.15924817,-4.087103651,-4.874085229,-6.61986991,-1.611693264
-2.337776488,-3.317085264,-2.521286072,7.527531685,3.032690492,2.205524306,5.289474372,4.050293398,10.75280065,3.898640768,13.19702195,7.652740168,11.85513658,1.08939511,0.123728446,-1.428148824,-3.28856288,-3.383584393,-1.714313368
-2.361611476,-1.865125864,-1.877706101,7.69365752,2.329024299,1.835353151,3.905665088,2.220948913,9.834393492,2.641088395,12.87371122,9.593145265,11.92796382,2.386823263,3.985722634,1.580839211,-1.483563637,0.062392596,-1.835634499
-2.767900273,-0.821758738,-1.427766942,6.882097493,2.295119669,1.538054742,2.434633832,2.083873625,8.887020289,3.089858207,12.11298305,11.89150504,11.16817847,2.888609793,7.027001643,4.534327345,0.375168763,3.07443279,-1.576730429
-2.882663027,0.382556408,-0.666643025,6.091240147,2.842105418,1.449243235,1.616475277,3.828514905,8.733244471,5.533144675,11.92089232,14.26678724,10.29595479,2.851676687,9.504497566,7.049916248,2.126989257,5.271007586,-0.834056222
-2.142972277,2.204076616,0.779948268,6.182864751,3.650147871,1.534497056,1.630953403,6.432880671,9.638058139,8.816338176,12.84707403,15.99369454,9.883281537,2.805440087,11.80955713,8.831076769,3.619985306,6.58066462,0.137453279
-0.55377107,4.513915346,2.765745351,7.344893182,4.39067441,1.622527615,2.139074364,8.324210399,11.07315607,11.20845571,14.60290962,16.38959091,10.12438508,3.20196481,13.83059764,9.741915732,4.681542396,7.132874112,0.931493821
1.328027075,6.630456983,4.662734871,9.101800039,4.924912858,1.537384092,2.657294747,8.391683221,12.01851904,11.62023304,16.34144119,15.38072885,10.89826405,4.119752932,14.78460549,9.874092814,5.1302489,7.119102968,1.278032651
2.845452701,7.79921247,5.778532434,10.74667104,5.353502507,1.230635377,2.924625331,6.680537742,11.60270968,10.27777371,17.28537691,13.64252141,11.94138952,5.20118684,13.75205957,9.519444019,4.864711124,6.714975253,1.180373133
3.720454579,7.697087428,5.792577395,11.78073796,5.896914489,0.812605926,2.983769008,4.326660805,9.651650334,8.410119485,17.15180724,12.12386387,12.92333303,5.848545302,10.54270698,8.991534362,3.973256733,6.061149747,0.825238453
4.14895241,6.555462934,4.865139497,12.03851381,6.700982898,0.458642272,2.9672209,2.804374228,6.78492529,7.257139653,16.07184246,11.28719105,13.39995466,5.545478937,6.162799034,8.378428247,2.758041295,5.250532198,0.390183784
4.462057771,4.857451169,3.378365509,11.51296756,7.706412318,0.264871147,2.825966798,2.999077283,4.01171487,7.169208598,14.18959084,10.68764118,12.81078629,4.112128667,2.396014522,7.431322138,1.616731967,4.299288772,-0.060740438
4.697001748,2.931325825,1.582859735,10.15145282,8.667141295,0.170339033,2.267029491,4.694597898,2.109867327,7.431809359,11.40463866,9.29699465,10.68537886,1.766669477,0.705636875,5.745958732,0.839864362,3.13790605,-0.51753791
4.493516673,0.811381343,-0.527065054,7.858590146,9.293200045,0.012493292,0.969735281,6.759639251,1.19626632,6.865486997,7.552931485,6.386701935,7.010211175,-1.00498434,1.255551416,3.163718584,0.462434376,1.669748087,-0.901569859
3.423094184,-1.551778899,-3.026331244,4.690911155,9.410880287,-0.322863707,-1.097022356,7.861416976,0.746714693,4.698906972,2.868621981,2.289344943,2.478294393,-3.666013715,2.816884917,0.087081911,0.279594837,-0.112802094,-1.044496413
1.453519433,-3.991427271,-5.773953455,1.020731345,9.034107608,-0.774949481,-3.528394276,7.234142355,0.020778444,1.088634335,-1.746150287,-1.612386723,-1.665863506,-5.805852167,3.659988978,-2.599838003,0.01695758,-2.035069265,-0.824861212
-0.8833488,-6.069619394,-8.326655392,-2.524483412,8.316673877,-1.110511269,-5.649462555,5.054262282,-1.399980518,-3.006000564,-4.997837576,-3.746813036,-4.205773329,-7.2078277,2.757604014,-4.032433885,-0.467471925,-3.758169204,-0.342415658
-2.796272572,-7.348138894,-10.15283171,-5.322809207,7.440839738,-1.065010041,-6.890487318,2.262508293,-3.29643115,-6.403829496,-5.915413213,-3.459556925,-4.626561193,-7.819142704,0.387943122,-3.95095969,-1.089296697,-4.922378867,0.058726011
-3.771499388,-7.734916861,-10.96467403,-7.008413403,6.528427406,-0.525054648,-7.105729131,0.008764527,-4.89645763,-8.29261776,-4.484953211,-1.519948512,-3.41455222,-7.685561329,-2.268094729,-2.90443512,-1.60242347,-5.330450437,-0.008525742
-3.896276843,-7.563473106,-10.87631404,-7.523831394,5.621861162,0.379937645,-6.611697962,-0.927487452,-5.295502381,-8.488016923,-1.697487533,0.397172873,-1.734794859,-6.907997852,-4.115781316,-1.865012825,-1.756145013,-5.046130722,-0.679627589
-3.707140276,-7.301777864,-10.25439261,-6.981796166,4.718208067,1.343975375,-5.927596108,-0.440931294,-3.968725351,-7.325401391,1.063034033,0.905914053,-0.674214729,-5.634464286,-4.855206554,-1.509941286,-1.426189339,-4.339200899,-1.689912493
-3.70577236,-7.135426927,-9.402316313,-5.515397928,3.807509371,2.061208342,-5.411913218,0.970093599,-1.095620397,-5.38306738,2.858914243,-0.094379179,-0.560756824,-4.059210585,-4.85100994,-1.7192574,-0.645139744,-3.515785514,-2.51504534
-3.954556767,-6.801501147,-8.358350707,-3.276309111,2.888297208,2.388730254,-5.0508131,2.54119622,2.474813342,-3.246847903,3.667236133,-1.359687165,-0.824166719,-2.394622223,-4.387572295,-1.690826464,0.452870759,-2.747642899,-2.714124877
-4.072238974,-5.835324351,-6.970404874,-0.558695855,1.975807994,2.388005641,-4.5318929,3.637148262,5.605450956,-1.38376156,4.180972389,-1.221856366,-0.478686265,-0.812877136,-3.098005095,-0.588260504,1.702970651,-2.004179409,-2.220469176
-3.594866463,-4.022411878,-5.1527982,2.131286744,1.131186184,2.231508597,-3.530501421,4.016418864,7.410228044,-0.073067299,5.155859129,1.187549998,1.129608478,0.60599269,-0.194869041,1.792241057,2.942616858,-1.113580576,-1.362763223
-2.368711563,-1.657761459,-3.070903617,4.210896295,0.505361269,2.058165227,-1.994624771,3.874111293,7.67493106,0.649598519,6.824189434,5.288164786,3.83562058,1.87346135,4.622620002,4.86005822,4.012191919,0.101054837,-0.613163294
-0.651204195,0.620968803,-1.078705193,5.314896968,0.344948504,1.888865395,-0.228845547,3.68210578,6.933073042,0.997745561,8.782319172,9.408738554,6.742935494,3.028795949,10.39335579,7.675348619,4.765482463,1.694968282,-0.269044948
1.120973693,2.286289827,0.529383783,5.523821888,0.906016792,1.656002159,1.275244261,3.923532331,6.147773973,1.323500629,10.35610541,11.85544624,8.790082633,4.057796903,15.05233973,9.607092757,5.114130263,3.544083905,-0.308243229
2.650853038,3.270254229,1.718802235,5.317217074,2.285696965,1.30802147,2.143180508,4.847793636,6.172178858,1.906131029,11.10380496,11.93081547,9.393298829,4.866524345,16.59243492,10.66088956,5.080358392,5.370254116,-0.496403788
3.902266997,3.915954535,2.680525478,5.251259812,4.268194181,0.894037324,2.352695275,6.350704638,7.296288248,2.767800149,11.0825183,10.25051455,8.759764955,5.347317928,14.44203117,11.24983228,4.805111447,6.829543343,-0.617157766
4.956105064,4.587409876,3.592569794,5.584415247,6.313564033,0.554493195,2.244204524,8.022038605,9.138033067,3.660774706,10.74885137,8.239428229,7.720251385,5.494538916,10.00895905,11.67497629,4.484946545,7.62942806,-0.619242289
5.787767195,5.287240728,4.393633208,6.121192036,7.749606486,0.421156202,2.293447849,9.324574044,10.91621837,4.246622872,10.63900849,7.220459353,7.231219761,5.46681956,5.915067334,11.8138657,4.269109322,7.635050907,-0.581392535
6.204777811,5.612978516,4.77378035,6.375280211,8.092745912,0.502372097,2.7800043,9.810931458,11.89544644,4.324141324,11.06089599,7.682081407,7.846541132,5.512918672,4.409041204,11.28982452,4.185742754,6.922960085,-0.573427823
6.004581713,5.080647184,4.395325293,5.915371628,7.317386139,0.643797582,3.552404089,9.277327046,11.69804967,3.913567053,11.92641094,9.087882673,9.412961541,5.781539142,6.039715752,9.930194779,4.148480348,5.753648919,-0.573588284
5.188567627,3.533155831,3.161078262,4.643269032,5.900037561,0.602697169,4.04158856,7.799045203,10.3116335,3.130144058,12.72305157,10.21783314,11.0954956,6.148383962,9.453080884,8.051004052,4.035672559,4.469715928,-0.520948219
4.016120007,1.299013733,1.316649488,2.837849986,4.591519902,0.194867378,3.536978841,5.65988564,7.880139835,1.977598415,12.60902841,9.782931216,11.70381731,6.217506614,12.35299976,6.278049501,3.782718237,3.369147747,-0.427819501
2.842549069,-1.000828047,-0.67810804,0.984967357,4.036612817,-0.577202791,1.588065604,3.233791706,4.537543167,0.280664457,10.67818292,7.024730933,10.20675954,5.547283938,12.89462439,5.065623375,3.423499845,2.619262554,-0.407411801
1.892223608,-2.808167016,-2.389182034,-0.458290711,4.454302245,-1.495940355,-1.686729871,0.878012286,0.475362349,-2.138101491,6.423180491,2.100365463,6.260947012,3.977944266,10.6105689,4.375605837,3.059014288,2.246231971,-0.55875016
1.17040503,-3.860424144,-3.579611008,-1.226797633,5.552413399,-2.21981319,-5.563798914,-1.13409552,-3.821344447,-5.160373143,0.249406404,-3.865994815,0.529646579,1.830276637,6.430641411,3.837082104,2.783446355,2.178503491,-0.810678868
0.570713757,-4.176811879,-4.225703407,-1.296435941,6.708788915,-2.442953787,-8.987991443,-2.642960621,-7.453321349,-8.217974371,-6.311306135,-9.127699427,-5.417042603,-0.196525154,2.001591115,3.241648975,2.621569954,2.289636546,-0.898440018
0.042342307,-3.909211789,-4.432555327,-0.851825187,7.302491106,-2.03545919,-11.0236847,-3.605058646,-9.350282388,-10.46524237,-11.02090772,-12.0070809,-9.680997586,-1.398398457,-1.149193561,2.879214703,2.515790937,2.409773035,-0.545175159
-0.364499467,-3.251391702,-4.356259063,-0.207573254,7.012071598,-1.092616029,-11.25176313,-4.068422629,-8.830649579,-11.20716105,-11.9718676,-11.68913362,-10.8924965,-1.478637714,-2.176721497,3.334011106,2.365475751,2.333382916,0.273776956
-0.612725241,-2.469755611,-4.176647822,0.309578521,5.93959281,0.123787214,-9.912590143,-4.12153796,-6.108607094,-10.29534604,-8.728368327,-8.709278168,-8.917237661,-0.71898626,-1.102310564,4.866132684,2.092340941,1.880862119,1.214929599
-0.807056155,-1.933898438,-4.074964942,0.501003021,4.525945583,1.310252779,-7.738782082,-3.834393967,-2.32318013,-8.207928914,-2.817393908,-4.781453569,-4.985235612,0.213571384,1.284846892,6.944415456,1.69656789,1.028070421,1.738211394
-1.162378658,-1.994512661,-4.162092162,0.394851246,3.325138765,2.241955635,-5.589446287,-3.230644459,1.03170517,-5.757676509,2.897420101,-1.94871768,-1.099956948,0.695309848,3.727788974,8.439828401,1.275154936,0.02688835,1.473223802
-1.800017577,-2.724837552,-4.383364021,0.223306472,2.754615788,2.832317797,-4.088423663,-2.320865566,2.943700907,-3.641458265,5.724017547,-1.480049543,0.986313539,0.519113759,4.988335264,8.434770653,0.988818016,-0.612002856,0.509718565
-2.557455038,-3.740431497,-4.498338114,0.268217836,2.929106252,3.118662558,-3.435620413,-1.18058378,3.41435749,-2.138671198,4.657450552,-3.16403722,0.658513593,-0.028598763,4.428644803,7.018389855,0.984094085,-0.342787913,-0.621029264
-3.022746631,-4.320759339,-4.201056324,0.678591653,3.638542224,3.203368097,-3.438381957,-0.005714592,3.310917074,-1.121772124,0.943196493,-5.452331086,-1.320079252,-0.410173331,2.413021358,5.35876564,1.302226131,1.070985381,-1.273718987
-2.812392863,-3.827535411,-3.320968489,1.407756034,4.47047585,3.195431467,-3.6877502,0.926490383,3.65971354,-0.293076879,-2.690585112,-6.379678814,-3.327678383,-0.202165243,0.205393606,4.893041999,1.825956531,3.311600033,-1.084176769
-1.871731332,-2.13813891,-1.947418294,2.324102659,5.020566144,3.180261417,-3.757773493,1.399469194,4.917376279,0.580887782,-3.650462738,-4.691494827,-3.824462849,0.67019861,-0.703854198,6.223668045,2.310734979,5.572865333,-0.143139407
-0.524584889,0.251285589,-0.362069828,3.383941002,5.095448129,3.213838423,-3.345220113,1.418118087,6.750720462,1.599727848,-0.928385335,-0.496642749,-2.152574384,1.95356347,0.526576662,8.612259111,2.506882119,6.965476479,1.155645615
0.79484213,2.562299288,1.174540625,4.678043736,4.808812839,3.318416696,-2.339108361,1.259236959,8.434075772,2.796991132,4.473064356,4.89588711,1.224300251,3.267684033,3.614928662,10.52667456,2.31872029,7.048840035,2.437114921
1.904451346,4.266766495,2.598487173,6.273706376,4.51641107,3.465669618,-0.848575619,1.338044791,9.481112192,4.193019924,10.289853,9.763517055,5.086199292,4.306903616,7.448030773,10.84875411,1.905133198,6.150809968,3.563268632
3.003137239,5.40485434,4.020593792,7.990924106,4.617553638,3.559743348,0.799105524,1.947615707,9.972066255,5.732409257,14.33183524,12.8411069,8.129706125,4.914775378,10.91379789,9.786447712,1.641217613,5.237755993,4.592784113
4.432878484,6.448443927,5.526814351,9.364951666,5.328250671,3.450086378,2.116281035,3.03837692,10.33677726,7.171269144,15.54832052,13.78695696,9.547121069,5.045078027,13.59229925,8.739118197,1.935744341,5.374345045,5.56710764
6.274091786,7.8400172,6.993908863,9.914870929,6.554194625,2.991236805,2.597614326,4.200926783,10.84079634,8.082277844,14.28196977,13.09597775,9.255072925,4.713257616,15.72607609,9.192690748,2.992168771,7.083242728,6.357066734
8.144794391,9.593300885,8.11240268,9.543682548,7.937884006,2.129202445,1.924692284,4.884691067,11.27048476,8.066046345,11.7581359,11.65650839,7.757780358,4.009059953,17.52060356,11.50440873,4.650033824,9.994437813,6.732451391
9.413623561,11.27052006,8.619518587,8.708447667,9.051253729,0.961817534,0.139466779,4.716595518,11.11110319,7.05319328,9.280285662,10.26887654,5.802121529,3.13417216,18.46143922,14.53607772,6.410588992,13.00548539,6.594737233
9.67324681,12.32344561,8.535354223,8.132748637,9.617688355,-0.275424664,-2.327475045,3.706036348,10.04701182,5.443806833,7.62825306,9.339560344,4.018022659,2.368448895,17.39188134,16.42894162,7.649946288,14.86668348,6.144499999
9.074814304,12.49021187,8.168121308,8.222751666,9.632512083,-1.302102803,-4.822818222,2.20052897,8.307774397,3.911055393,6.884564526,8.798347871,2.683080413,1.926034011,13.45705791,15.92379476,7.914647394,14.85410703,5.796842285
8.224009324,11.9250313,7.852593684,8.663522342,9.318066399,-1.913852027,-6.76058439,0.636238981,6.518940938,2.956748194,6.619277946,8.201941064,1.677673086,1.788727042,7.192147263,13.2279747,7.143672615,13.14835629,5.879353486
7.70946998,10.99590203,7.640485831,8.597673518,8.952843406,-2.059639009,-7.87659291,-0.727371685,5.174618175,2.537698958,6.237234185,6.986254444,0.633565538,1.671165567,0.746508998,9.815888766,5.69784709,10.71361207,6.354299836
7.654160444,9.972176031,7.23391101,7.326202075,8.686707442,-1.833756272,-8.298951063,-1.901260517,4.213722443,2.072260875,5.320602216,4.812460042,-0.78914993,1.196885935,-3.181540095,7.382046431,4.180649284,8.756705174,6.812581653
7.665682046,8.886993745,6.256806729,4.988356307,8.453497414,-1.401104378,-8.399929463,-3.046224604,3.10907546,0.864541709,3.858038229,1.869232733,-2.633134717,0.192151233,-3.07947932,6.770067783,3.145769528,8.07580136,6.77517242
7.220247474,7.663165788,4.653043805,2.613184056,8.02576023,-0.916598146,-8.534501738,-4.265154624,1.415843679,-1.347608974,2.272109888,-1.073218603,-4.544061446,-1.118792594,0.252410528,7.628529183,2.84612775,8.661881959,6.08055911
6.143731618,6.334915825,2.858153619,1.405412882,7.170589512,-0.490462126,-8.837689439,-5.492268155,-0.71493665,-4.1352396,1.192523201,-2.982440472,-5.925143978,-2.188429922,4.131784964,8.915429812,3.154884255,9.770506693,5.050222129
4.77619735,5.122284269,1.558291925,1.77888116,5.811785071,-0.200903887,-9.199140282,-6.563881823,-2.557060816,-6.622138597,1.047495473,-3.13995922,-6.27043047,-2.467258323,5.80151084,9.735193751,3.693279485,10.41504662,4.285737545
3.688347725,4.278105497,1.198385426,2.927359178,4.107024897,-0.110485186,-9.40066596,-7.386611501,-3.398514089,-8.059851388,1.714688359,-1.620838434,-5.463437389,-1.754192926,4.354171941,9.841314439,4.083301336,9.987583169,4.234307234
3.20844429,3.861033133,1.633003753,3.346605232,2.40007578,-0.244797495,-9.290847716,-8.028117076,-3.198136911,-8.304985345,2.521420119,0.68408166,-3.833632869,-0.325557802,1.352712861,9.523681779,4.170844104,8.629989641,4.839960905
3.174116963,3.665177817,2.218242917,1.961960169,1.075629321,-0.541131647,-8.862426923,-8.624987923,-2.694008655,-7.842970678,2.688082906,2.57342874,-1.933038581,1.246809672,-0.350045358,9.135120626,4.083674839,7.119077782,5.53652017
3.114989687,3.387900797,2.289807861,-1.004914212,0.39365229,-0.824547713,-8.193761851,-9.176581467,-2.795777951,-7.355347705,1.956536109,3.244594589,-0.206636659,2.448292395,1.239077504,8.741403413,4.094126735,6.331754599,5.590000877
2.691732354,2.890126926,1.65712261,-4.123406466,0.388585304,-0.86671192,-7.334050039,-9.420849557,-3.739174486,-7.18249457,0.918658782,2.708309802,1.191994339,3.08890449,5.695289183,8.164740239,4.387233312,6.639743314,4.55675893
2.002722401,2.316557414,0.732810037,-5.738814343,0.88300533,-0.51943549,-6.254853498,-8.946814442,-4.752191162,-7.107560696,0.704907011,1.623956812,2.319403241,3.313941053,10.34498828,7.286528692,4.902900279,7.652030118,2.562821465
1.501601452,1.975440713,0.216868712,-5.084508981,1.603097751,0.16184472,-4.921827988,-7.505061132,-4.599955653,-6.620312518,2.166564102,0.722768922,3.209816062,3.394612963,12.04718089,6.260486093,5.37057235,8.501447663,0.25170484
1.616861496,2.097391355,0.606109863,-2.670451016,2.327535348,0.909534841,-3.418660941,-5.284711106,-2.625678543,-5.425283286,5.134587257,0.304373294,3.738560659,3.493726734,9.326989906,5.423487773,5.512698303,8.487062686,-1.534416459
2.413390215,2.689444189,1.907529286,0.285669358,2.985280994,1.387506282,-1.987759932,-2.902725921,0.575553913,-3.755140151,8.365414212,0.200900651,3.731804292,3.587721102,3.386087137,5.007422156,5.260028028,7.606395877,-2.140212653
3.573662959,3.589075019,3.726439442,2.833112321,3.653392865,1.409529628,-0.907682904,-1.044164861,3.478685932,-2.205744109,10.3026108,0.173027112,3.223545803,3.568272454,-2.660543601,4.939472399,4.804181668,6.565696953,-1.362188095
4.677645343,4.622831514,5.579447273,4.833682668,4.471256333,1.081712988,-0.272216975,0.029832479,4.77310142,-1.205646824,10.13741853,0.308328798,2.584667524,3.3901,-5.746990492,4.91467638,4.436801054,6.23488946,0.48835202
5.505828785,5.687573151,7.13495119,6.688402044,5.537709142,0.752332362,0.147466992,0.741954465,4.438136313,-0.555016024,8.367328731,0.99199024,2.325249161,3.110245252,-4.689445289,4.658627478,4.301260887,6.948857133,2.707498896
6.102550622,6.681585689,8.218889573,8.614138339,6.856133764,0.781838147,0.799384698,1.980867541,3.843364531,0.547402205,6.399347983,2.430142676,2.66101269,2.785921334,-0.746210803,4.132525731,4.268299097,8.20502961,4.448346291
6.584289594,7.398151347,8.684055034,10.22506609,8.343134639,1.280810427,2.019064364,4.485709013,4.712064456,2.9302959,5.481674927,4.168446104,3.193921281,2.345051527,3.332469658,3.511223169,4.057467272,9.022786414,5.031082606
6.91529519,7.553902462,8.364437314,10.84411591,9.862545076,2.001765385,3.684326402,8.220839224,7.709678529,6.70753105,5.788811766,5.132328394,3.039297404,1.580506751,5.043160393,2.989171694,3.51936752,8.70793287,4.223803409
6.880811803,6.982613222,7.20778877,10.23619942,11.2368424,2.475577145,5.138939054,12.18715459,11.76641713,10.92581658,6.377143555,4.304560775,1.410992041,0.312164336,3.536961796,2.613565917,2.836301023,7.415243991,2.372151421
6.274735575,5.819512314,5.442608016,9.006857549,12.2317445,2.316232973,5.518875031,14.8602801,14.70973856,13.92898058,6.038048553,1.57639034,-1.709128283,-1.39539226,-0.09265176,2.281551747,2.436496347,6.027859506,0.273203315
5.102081012,4.454879855,3.546850615,8.185159733,12.56355746,1.495907424,4.329058938,15.03451787,14.7758321,14.27336931,4.355661684,-1.933045845,-5.321474508,-3.140314227,-3.676766722,1.85545172,2.643114152,5.40801762,-1.199951266
3.588882714,3.230140138,1.958241973,8.281713716,11.9829193,0.403900311,1.896859904,12.56260375,11.88518574,11.623629,2.115158172,-4.448013159,-7.82538995,-4.316622434,-5.354521545,1.244803588,3.321640294,5.605526322,-1.553214996
1.994118873,2.121344177,0.745858643,8.674968627,10.42415729,-0.357821671,-0.647632305,8.518737378,7.744654003,7.033837692,0.739160561,-4.666821378,-7.879717829,-4.408633164,-4.6129323,0.379594861,3.839046204,5.694753785,-0.940713021
0.423153072,0.731712014,-0.435233382,7.979017561,8.125636476,-0.317983691,-1.928107456,4.661120218,4.72660804,2.403938356,1.217229289,-2.641955907,-5.158358491,-3.263622735,-2.412074725,-0.840286538,3.435567931,4.443109174,-0.058193046
-1.159233538,-1.321151924,-1.998070295,5.205806085,5.604989942,0.594510052,-1.109402522,2.505031157,4.368565378,-0.562824774,3.389534641,0.257774751,-0.517721041,-1.175268162,-0.406520477,-2.479791688,1.781083905,1.340926084,0.300052061
-2.729406535,-3.909630378,-3.943768911,0.777594865,3.454762725,2.016573614,1.581740625,2.555775575,6.551858963,-1.252830082,6.133895434,2.295760724,4.502450931,1.261179188,0.193420749,-4.380654811,-0.695979604,-2.814961963,-0.252424423
-4.042808208,-6.246807098,-5.683823061,-3.528892325,2.060657109,3.36286236,4.959492676,4.142676089,9.836588901,-0.342619491,8.25917823,2.538223962,8.488647252,3.422181273,-0.615707959,-6.035942271,-2.990572013,-6.29560446,-1.45802636
-4.722100562,-7.30817552,-6.392214616,-5.777444689,1.426812173,4.145329774,7.565380024,5.918652527,12.55867458,0.778348549,9.353881821,1.407055759,10.76492535,4.902732574,-1.727255163,-6.744938753,-4.12976418,-7.558054795,-2.607430814
-4.56663447,-6.572954059,-5.660792644,-5.300571827,1.238847918,4.208966168,8.510333424,6.691420217,13.82112424,0.951291562,9.924445076,0.262720745,11.50247279,5.627250397,-1.803417516,-6.052529057,-3.792983479,-6.300423933,-3.023814136
-3.806988254,-4.511008281,-3.922420468,-3.19662449,1.129694374,3.759062525,7.93650743,6.079880475,13.74571013,-0.060483733,10.78292878,0.391983946,11.38882964,5.805513011,-0.327438412,-4.180120439,-2.497491829,-3.665157831,-2.50181915
-3.027496577,-2.378506167,-2.241386847,-1.452411108,0.95862502,3.189434459,6.816693601,4.633990208,13.01462969,-1.544139852,12.26169813,2.169199798,11.15805297,5.783233951,1.926522286,-2.059838245,-1.211264931,-1.432323842,-1.406470289
-2.757146617,-1.410228121,-1.574241831,-1.371303879,0.897799281,2.834625693,6.251738801,3.405707971,12.24265413,-2.422753685,13.92805469,4.943981463,11.26025013,5.859682871,3.38243563,-0.832667385,-0.675142747,-0.801786976,-0.38862592
-3.046669324,-1.991487945,-2.064185579,-2.571447574,1.265825434,2.797445409,6.751687948,3.282601773,11.69984252,-2.006072947,14.99522798,7.606002772,11.75701332,6.140946761,2.801256308,-1.102265291,-0.926000939,-1.657631279,0.056693175
-3.406627832,-3.437807506,-2.943549447,-3.361135237,2.244660524,2.940231193,7.972808422,4.500282255,11.464682,-0.391394498,15.01687023,9.29868831,12.37137985,6.488112213,0.246975456,-2.491374323,-1.352025227,-2.818089106,-0.126955702
-3.197062356,-4.547500503,-3.143988667,-2.172045355,3.706436315,3.021820334,9.050001762,6.59380482,11.67601369,1.713575344,14.24000011,9.756123649,12.61121979,6.597601534,-2.872824217,-3.877346292,-1.207889504,-3.018432069,-0.605366447
-2.165777737,-4.489736618,-2.135333429,1.124748389,5.285039969,2.878922204,9.254349508,8.754146403,12.53029269,3.551982942,13.33580323,9.149388436,11.9610198,6.195996838,-4.784714891,-4.182164746,-0.185607595,-1.848744606,-0.950543996
-0.680189912,-3.34165424,-0.319694388,5.07240402,6.627525693,2.535635809,8.504532478,10.31841031,14.00574207,4.816030646,12.79590643,7.748409952,10.15383416,5.253378807,-4.649648492,-3.149070688,1.374731061,0.034469513,-0.939482207
0.559795528,-1.894134333,1.328563749,7.724400545,7.617731876,2.179827396,7.394673908,11.0807921,15.628812,5.721870336,12.56033433,5.775147675,7.436167676,4.072755831,-3.187847046,-1.521604164,2.750827328,1.498612202,-0.644120316
1.097854778,-0.945297687,2.06288494,8.0551055,8.396439379,2.031880996,6.755550456,11.26857547,16.60114736,6.648608152,12.19806559,3.533433378,4.628412839,3.159619882,-2.100120754,-0.486215831,3.337047867,1.794626849,-0.288768573
1.097019596,-0.692632594,1.931704896,6.562318952,9.178480179,2.196607144,7.081533046,11.26155553,16.27733331,7.669384692,11.43474692,1.56607039,2.82513212,2.915304532,-2.684181422,-0.802963357,2.992324961,1.013332838,-0.028676661
1.185071866,-0.704813558,1.648242405,4.671255065,10.03448271,2.594901465,8.219210368,11.28575038,14.63856476,8.378395374,10.50279128,0.542677546,2.812863932,3.343835838,-4.715475849,-2.282620026,2.018888674,-0.14159188,0.163170951
1.889342384,-0.436126538,1.894555068,3.54528992,10.82074738,3.01681061,9.504053989,11.29245677,12.36979061,8.173208793,9.964986604,0.863084746,4.547303768,3.994038165,-6.516577986,-3.987860431,0.863060088,-0.982568086,0.430572434
3.135229417,0.206129126,2.667293028,3.32032551,11.29733716,3.257922328,10.21667372,11.07282089,10.45562138,6.776046384,10.16556419,2.292456416,7.083341372,4.223272923,-6.240806922,-4.970102559,-0.17858394,-1.320121424,0.873788496
4.234063686,0.740710529,3.227012803,3.306373385,11.30519005,3.247939799,10.03291948,10.48047705,9.590130634,4.564888365,10.8263444,3.994411282,9.087283227,3.641662406,-3.422731749,-4.954783281,-1.028312676,-1.453311296,1.442652038
4.375556341,0.522247584,2.693601669,2.818435442,10.83241926,3.088362079,9.181129579,9.568465175,9.821422704,2.410942079,11.19223596,5.024453654,9.641861143,2.440114041,0.423203838,-4.462296977,-1.685386847,-1.774609887,1.966940647
3.222691958,-0.694915701,0.786244902,1.805425727,9.923057624,2.979291115,8.241379681,8.533645219,10.6364386,1.099891402,10.63746978,4.94627492,8.80389463,1.352422466,2.695627128,-4.317789275,-2.070148056,-2.390522834,2.284487476
1.138119534,-2.525445704,-1.903126621,0.740757031,8.549860255,3.089728437,7.757317837,7.529762498,11.34701158,0.761576573,9.21637374,4.096809051,7.514624558,1.238120498,1.501487368,-4.973443655,-2.030595454,-3.074702694,2.353405631
-1.103086748,-4.228202593,-4.310925637,-0.008208537,6.621031957,3.459552638,7.926147126,6.525680791,11.4632859,0.766833853,7.670380466,3.288226854,6.916618096,2.538323691,-2.943441958,-6.174908057,-1.503537722,-3.529656858,2.263125361
-2.835168422,-5.224224007,-5.628558095,-0.628045253,4.161220129,3.992158403,8.545272153,5.353223631,10.84690213,0.220327911,6.86842701,3.183385873,7.562334571,4.958471596,-8.338222319,-7.193188277,-0.656937321,-3.6650146,2.151598458
-3.824344098,-5.417480777,-5.768427533,-1.644123037,1.511689264,4.52828901,9.207025341,3.92826125,9.670055882,-1.283547238,7.14910072,3.837539593,9.074034251,7.590260245,-11.73449467,-7.391665125,0.15196427,-3.631057408,2.10771084
-4.187432688,-5.094407688,-5.245057002,-3.256445123,-0.678503768,4.936441136,9.578936576,2.463724546,8.324920683,-3.215654406,8.113052111,4.749114603,10.47220172,9.397597755,-11.36442707,-6.667956312,0.59833591,-3.610830051,2.133755034
-4.081463691,-4.563906176,-4.653413833,-4.923112419,-1.756333888,5.154216237,9.578455511,1.463648687,7.345714388,-4.365592968,9.014015494,5.339226689,10.8959896,9.760414398,-7.604781135,-5.45636929,0.615362533,-3.603153007,2.179659156
-3.516723771,-3.899121337,-4.229689964,-5.680923866,-1.491707021,5.165248664,9.348567806,1.436691474,7.266799775,-3.677212831,9.376727109,5.443470305,10.17428409,8.751961367,-2.508168605,-4.343550636,0.433192185,-3.412413541,2.201893003
-2.471374797,-2.994523344,-3.83781958,-4.977311425,-0.302291989,4.953800675,9.086859649,2.497544528,8.348623356,-1.090693585,9.295642138,5.423946804,8.860147394,7.018072716,1.633033297,-3.629775801,0.396023474,-2.838178247,2.193748825
-1.146005041,-1.82348833,-3.301109652,-3.243966172,0.9437143,4.494835467,8.876443886,4.157586661,10.28867158,2.244369369,9.189870482,5.851700418,7.770553911,5.381901278,3.626002696,-3.16090517,0.707190952,-1.861464472,2.173710019
-0.030377328,-0.594906737,-2.69387183,-1.613825968,1.460161891,3.798463413,8.653520405,5.518136554,12.19751222,4.607439175,9.305575781,7.06133664,7.428274047,4.438213361,3.778635702,-2.510741191,1.30316914,-0.647101885,2.158921421
0.369317902,0.367847644,-2.291052066,-0.954369063,1.052138522,2.968663942,8.336124837,5.80658953,13.02700401,4.811677662,9.48704576,8.944462216,7.817930424,4.352474176,3.295378343,-1.333258709,1.935191926,0.611132839,2.154367055
-0.059284626,0.902163896,-2.243205981,-1.066035417,0.232540296,2.210480944,8.007656433,4.924553142,12.28357103,3.025711261,9.462665461,11.09762681,8.567836006,4.90921572,3.28236792,0.37716254,2.358203263,1.80489405,2.160583765
-0.874571447,1.139979876,-2.335875024,-0.824875994,-0.14696093,1.754001092,7.990264252,3.617001262,10.5274051,0.723056262,9.362381463,13.12175255,9.325687596,5.701712303,4.0914057,2.262353727,2.453153822,2.837177934,2.179619825
-1.376293695,1.335428688,-2.124066471,0.7609785,0.512753175,1.732753741,8.707778111,3.093565428,9.189075588,-0.242790487,9.900232348,14.77448734,9.989234963,6.318983266,5.315592797,3.777071476,2.19909104,3.441017856,2.206289009
-1.156260722,1.533468774,-1.365689028,3.466898232,2.167738019,2.101496459,10.39314212,4.301671887,9.694839886,1.165148181,11.91411893,15.87502723,10.6400726,6.45731912,6.231552733,4.429015,1.570946589,3.144432464,2.218090034
-0.443940426,1.413795479,-0.359870918,5.743764673,4.204581368,2.660865523,12.83563167,7.308631605,12.45636444,4.49304116,15.55722518,16.14631416,11.31665609,5.973239864,6.272830141,3.965641643,0.510404931,1.547013217,2.187659321
0.07171763,0.510293864,0.162541739,5.80909083,5.891075554,3.182446846,15.37573925,11.20162316,16.47252338,8.079129439,19.84282287,15.26529145,11.89159527,4.921587305,5.276105323,2.463230513,-0.96945237,-1.232673708,2.11802731
-0.179969885,-1.342659864,-0.434138974,3.115056261,6.850669483,3.55244053,17.20659867,14.57956595,19.89401108,10.07839841,23.05020417,13.1802299,12.18832253,3.579234486,3.506318853,0.315831928,-2.645768003,-4.328814,2.065199429
-1.158483275,-3.729274721,-2.1641629,-1.02911235,7.22272677,3.833905266,17.81779935,16.31801972,21.18431855,9.533950562,23.81137636,10.43438343,12.21872885,2.403886724,1.566110221,-1.877622145,-4.087186817,-6.434787893,2.107608919
-2.236811727,-5.826769538,-4.348885941,-4.272160368,7.435327881,4.202371327,17.2833608,16.1146457,20.03990296,6.817787663,22.07956642,8.119878398,12.2853606,1.88545759,0.208170563,-3.520909352,-4.867580579,-6.563592729,2.265943157
-2.739884033,-6.945560902,-6.088973253,-4.896985634,7.808592303,4.797853679,16.17143941,14.49040133,17.40747065,3.237904161,19.18384332,7.326012786,12.79770932,2.322304105,0.000299426,-4.263720304,-4.866499109,-4.766711857,2.436558512
-2.542366187,-7.015950448,-6.909896476,-3.050798754,8.300677495,5.594080445,15.11218137,12.30570306,14.63759945,0.175165986,16.85373843,8.378426024,13.91050927,3.63669172,0.907762733,-4.161054265,-4.412737176,-2.247491946,2.416420957
-2.203573406,-6.61913104,-7.055998808,-0.555197261,8.558184334,6.373456515,14.32412604,10.17200454,12.48032122,-1.632311444,15.92978996,10.42994438,15.27578327,5.357405503,2.069534051,-3.635839167,-4.112765563,-0.691223462,2.036569619
-2.502211453,-6.522620422,-7.197524497,0.543003616,8.185909778,6.826081052,13.46066802,8.171840436,10.71652208,-2.243685517,15.77267917,11.80259475,16.1448925,6.815282146,2.083241109,-3.23658857,-4.444564739,-1.208391374,1.322604391
-3.747229704,-7.083461006,-7.80316373,-0.480581195,7.01087708,6.71378581,11.92287825,6.037690304,8.661711832,-2.155533485,14.86770255,10.96753092,15.79854186,7.466630701,-0.18441289,-3.322907076,-5.399199631,-3.605981335,0.549473801
-5.442111924,-7.984896372,-8.702910739,-2.586767503,5.169955402,6.005075863,9.432226754,3.591844274,6.046124112,-1.819960488,12.17726905,7.555841215,14.02572718,7.168392177,-4.709752151,-3.875174055,-6.443829004,-6.499853477,0.113776239
-6.593131645,-8.492297487,-9.196274364,-3.915699676,3.0167028,4.908902289,6.430851877,1.076408969,3.480011943,-1.42131527,8.17420829,2.704313168,11.3188701,6.243256979,-10.01817873,-4.54664754,-6.853665021,-8.1953513,0.283698275
-6.420295516,-7.996938211,-8.602457263,-3.28085321,0.96404588,3.791945566,3.96841311,-0.881690004,2.092464297,-0.986252833,4.704791017,-1.546717533,8.641456526,5.289435037,-13.85251266,-4.907556063,-6.188020571,-7.729500328,1.000399322
-4.903219619,-6.4133074,-6.794349474,-1.001899015,-0.630728081,3.019535278,3.099295482,-1.631414499,2.650180195,-0.59391388,3.730314795,-3.449103645,6.911465145,4.838273778,-14.48637907,-4.701899399,-4.57917312,-5.380235337,1.892996432
-2.742922685,-4.159233618,-4.296834076,1.512102677,-1.524688909,2.790776211,4.188696791,-0.9067338,4.903602801,-0.407164991,5.87648822,-2.571926554,6.521617086,5.053120444,-11.81574779,-3.948967823,-2.643305089,-2.354317848,2.52224059
-0.807179774,-1.811161084,-1.907820995,2.963426334,-1.637270283,3.039898806,6.621952445,1.003143341,7.70520483,-0.47811667,9.887104419,-0.000804969,7.174517233,5.640946136,-7.430137002,-2.857242957,-1.096987978,0.055054162,2.688910993
0.465474782,0.233253445,-0.182521866,3.098311472,-1.100742654,3.453621664,9.14128706,3.410057641,9.78925513,-0.557017078,13.40232156,2.39401045,8.099733274,6.027931982,-3.568005627,-1.66149613,-0.358789645,1.224698401,2.574896288
1.233694091,1.824909083,0.808477133,2.653541978,-0.254892203,3.612397921,10.59108314,5.564231748,10.56545166,-0.181172967,14.49342713,3.121737353,8.496928748,5.701540361,-1.686474739,-0.528829174,-0.394308866,1.39091579,2.594839122
1.914035924,2.889201971,1.309472135,2.501236504,0.480512576,3.207492189,10.56740418,6.94046546,10.31133146,0.924806013,12.84795307,1.917958926,7.949855025,4.528537946,-1.672684719,0.410710332,-0.861257261,1.239710433,3.052093766
2.680354711,3.252234277,1.515313992,2.83554008,0.829704205,2.234707675,9.551817732,7.340537331,9.695385129,2.435721851,9.802599351,-0.224560056,6.610589244,2.871391608,-2.236974381,0.978559511,-1.398853635,1.274381606,3.851116262
3.250268213,2.675802022,1.359869445,3.113889356,0.840831795,1.052206553,8.490801073,6.848552339,9.12688183,3.403493912,7.295799298,-1.788709186,5.094909594,1.435016783,-2.124668249,0.925260732,-1.84008162,1.429170697,4.490888975
3.125139564,1.076639129,0.623617997,2.718308774,0.86720153,0.240776688,8.163111262,5.75861213,8.518139627,2.775333051,6.566047753,-1.709376129,4.165273936,0.920518749,-1.172325042,0.025329672,-2.230186719,1.160091426,4.363017593
2.050580512,-1.289204916,-0.776426536,1.643369002,1.325648891,0.310518482,8.775703924,4.534084638,7.607392643,0.159521619,7.504739498,0.018282784,4.352774347,1.664244927,-0.394209996,-1.768583193,-2.699728391,-0.107112857,3.153421524
0.293373779,-3.869717523,-2.600503144,0.534639704,2.389002159,1.402523046,9.997461636,3.741799172,6.445941076,-3.72457628,8.988069036,2.411294138,5.678645891,3.447217845,-1.075868476,-4.229659088,-3.328147925,-2.506108604,1.069947827
-1.487741154,-6.071165007,-4.371135364,0.048364317,3.842699592,3.164157254,11.29260557,3.872347573,5.507947558,-7.319850793,9.77461272,4.117080115,7.595315164,5.572228105,-3.634056215,-6.896951981,-4.094624354,-5.540377566,-1.252550701
-2.650809232,-7.521187509,-5.643921717,0.164023036,5.220982858,4.894301736,12.23682945,5.063417864,5.266617376,-9.129374931,9.23933517,4.149677167,9.188085399,7.172381696,-7.159082403,-9.232377693,-4.910886182,-8.275809942,-3.08624586
-2.924544448,-8.149430005,-6.229203163,0.142132841,6.118282624,5.896741036,12.60640192,6.895563324,5.634130404,-8.654441037,7.500182686,2.332656319,9.572977581,7.603660786,-9.987039336,-10.80367393,-5.668657648,-9.792868038,-3.946144766
-2.463006808,-8.075018305,-6.203807099,-0.777166625,6.429914064,5.843628651,12.28878743,8.469229287,5.856840744,-6.708572052,5.060854615,-0.7106567,8.325669972,6.736332142,-10.83439444,-11.4040785,-6.25718926,-9.649117305,-3.726295785
-1.629634591,-7.454232751,-5.755013094,-2.547765428,6.338462289,4.932236443,11.22067149,8.818729822,5.082366386,-4.860236662,2.436584417,-3.903187956,5.73398438,5.008545546,-9.616999178,-11.07460413,-6.568743392,-8.108196476,-2.615074244
-0.738699461,-6.433202437,-5.030071876,-4.144293677,6.079822571,3.739795189,9.477982291,7.463075897,3.183932237,-4.37797777,0.094545468,-6.156903379,2.724897213,3.214740189,-7.36648853,-10.04722585,-6.533431024,-6.005896514,-0.9322863
0.047989562,-5.196998677,-4.114226287,-4.279018498,5.709003907,2.869212829,7.420254944,4.737846202,1.110296967,-5.414837283,-1.383399684,-6.727821567,0.468157623,2.123729209,-5.377549273,-8.643675339,-6.180991122,-4.302340703,0.956670551
0.661355632,-3.984069342,-3.103700415,-2.458526346,5.077134679,2.608578942,5.664889907,1.648140543,0.34908721,-6.996653268,-1.28736499,-5.421745663,-0.16913412,2.105411076,-4.282049761,-7.1584054,-5.666429652,-3.545580166,2.627855756
1.040897419,-2.981487162,-2.14785158,0.506923314,4.03415291,2.81149589,4.784583564,-0.706886158,1.818760457,-7.795176854,0.853162256,-2.655690791,0.952494284,2.952049821,-3.733056694,-5.756555935,-5.195709044,-3.555728627,3.605575133
1.137052288,-2.18383151,-1.394939427,3.005120451,2.661263443,3.05503798,4.895818592,-1.778219511,5.034612389,-7.106305264,4.721575104,0.637857559,3.164606638,3.997133287,-2.8580699,-4.431766841,-4.868194235,-3.550699762,3.508761284
0.969087469,-1.395937069,-0.909718851,3.76503528,1.303610368,2.951565937,5.481311662,-1.848506956,8.256336712,-5.329223508,8.994698476,3.300005127,5.309566276,4.487769743,-1.056630119,-3.062888561,-4.549368866,-2.68127931,2.304233309
0.623022684,-0.452416662,-0.680494467,2.73570844,0.351442389,2.402054048,5.670949145,-1.755818454,9.592595519,-3.633227755,11.81875692,4.402025452,6.306527289,4.021831219,1.481832729,-1.55714784,-3.903004399,-0.660085498,0.467190437
0.145246485,0.507824119,-0.732324795,1.011441376,-0.04881029,1.636164803,4.852992284,-2.249646324,8.285887811,-3.098758624,11.82104976,3.702585759,5.681976553,2.802762479,3.880794002,0.006268449,-2.608853603,1.941390431,-1.156837799
-0.564578664,0.999353315,-1.215062639,-0.103311484,-0.094956736,1.038611026,3.183709007,-3.427007919,5.234869012,-3.978360293,9.006775786,1.838718802,3.796848161,1.546697213,5.153711803,1.347421133,-0.638212414,3.971777518,-1.792661426
-1.706931205,0.516495656,-2.312969616,-0.106883363,-0.138336383,0.899684638,1.582436606,-4.639973206,2.37077905,-5.593207228,4.866318869,0.058043582,1.655883274,1.073292909,4.80416676,2.123109942,1.617911972,4.412590444,-1.217629953
-3.357508124,-0.972874379,-3.98596407,0.41776839,-0.357422881,1.257927543,1.160331113,-4.936242148,1.350229463,-6.889193747,1.531440602,-0.441126038,0.398010875,1.81396622,3.059093016,2.154386646,3.495038556,3.057097694,0.073749195
-5.241289994,-2.790593551,-5.763503598,0.424542325,-0.582825949,1.916763244,2.464590134,-3.728458109,2.501810769,-7.20848258,0.50063251,0.789758464,0.728657185,3.542854381,0.653814606,1.575319205,4.410883787,0.678475617,1.192888074
-6.749404543,-3.85904988,-6.850064722,-0.646767089,-0.441373232,2.589104999,5.078248637,-1.241224173,4.724459846,-6.724125755,1.780854069,3.146256674,2.581092939,5.509471198,-1.623836917,0.767053012,4.2006959,-1.447986722,1.475907872
-7.271626913,-3.418157963,-6.579012325,-2.404436304,0.289294658,3.050007945,7.86236531,1.552742481,6.307357262,-6.277638266,4.004901315,5.284574634,5.169681056,6.893375727,-3.336187162,0.093894147,3.196991213,-2.349440529,0.950858757
-6.632698428,-1.627450265,-4.928510828,-3.881711911,1.420133966,3.201836182,9.656580485,3.453785479,6.009675211,-6.795533599,5.394965993,5.873337882,7.390010805,7.281769648,-4.552683466,-0.381156025,1.988514991,-1.939975721,0.283364998
-5.27920532,0.444327241,-2.679193896,-4.386685496,2.428291429,3.04501807,9.93465091,3.679988076,3.663320602,-8.710987341,4.873652734,4.310037175,8.344351131,6.852452202,-5.727455195,-0.988301114,1.020173894,-1.011194007,0.214186315
-4.022136593,1.485750757,-1.011042535,-4.068497333,2.841166289,2.621617014,8.985382689,2.258262908,0.027199935,-11.73422524,2.589087647,0.96525573,7.723795769,6.153163086,-7.37744103,-2.266929488,0.31253745,-0.691573009,0.909056522
-3.493761903,0.778479697,-0.76962398,-3.710669918,2.631504469,2.000944216,7.576158129,-0.025001412,-3.803754151,-15.02157957,-0.388967534,-3.13410277,5.881510521,5.66010375,-9.701690402,-4.622942793,-0.502479281,-1.796390793,1.742873471
-3.730854829,-1.439478169,-1.929953244,-3.937571801,2.299653834,1.31361179,6.429950066,-2.031915114,-6.905966302,-17.54426597,-2.83942872,-6.879455249,3.612725484,5.456271469,-12.31932687,-8.058852513,-1.856602968,-4.502538501,1.729801531
-4.217374658,-4.347710503,-3.677396154,-4.526554833,2.555047127,0.774698931,5.914338628,-2.788029906,-8.659617171,-18.42226151,-4.010842429,-9.481545137,1.799644905,5.26893159,-14.29952671,-12.14564099,-3.861631507,-8.468773792,0.307591467
-4.354021203,-7.308189371,-5.062535019,-4.439131713,3.819409137,0.630565091,6.083855918,-1.858038561,-8.633499826,-17.12823701,-3.729170994,-10.49335404,1.102682514,4.817022674,-14.5517475,-16.22029828,-6.137239609,-13.16469435,-2.121201887
-3.969590622,-10.34567123,-5.730555741,-2.597017836,5.909886969,1.027369283,6.889777746,0.536179991,-6.555628226,-13.6065196,-2.121646362,-9.624382409,1.794438717,4.166841387,-12.43116144,-19.63835843,-7.970469707,-18.06949967,-4.340320673
-3.45205002,-13.91570109,-6.153525343,1.180168823,8.119030037,1.880890291,8.267481007,3.63619025,-2.537662981,-8.358319166,0.61803733,-6.698412282,3.726417037,3.781323823,-8.211549342,-21.90922017,-8.699569204,-22.61440524,-5.102377108
-3.395300541,-18.16064687,-7.18149286,5.803833653,9.613248722,2.85496868,10.00332111,6.417207177,2.622738958,-2.442575278,4.135179628,-1.924760096,6.376457537,4.192918377,-3.071267019,-22.68203546,-8.070061306,-26.04968526,-3.993111358
-4.065350945,-22.33049755,-9.272057476,9.422240564,9.859224412,3.497111688,11.56724788,7.914141211,7.416009016,2.723370733,7.615723496,3.736582868,8.958604748,5.542820127,1.489636641,-21.69858001,-6.343438234,-27.52201711,-1.741364422
-5.140673107,-24.94865728,-12.01756391,10.47317635,8.811243531,3.470631832,12.18784302,7.522536287,10.05894832,5.796576953,9.69874965,8.564471591,10.61888711,7.358423902,4.475700363,-18.85032705,-4.114099431,-26.44643892,0.266136634
-5.946863751,-24.6934362,-14.35116797,8.577508229,6.803715206,2.743613908,11.24043121,5.192897638,9.211523125,6.019566655,8.89242598,10.67976364,10.71483785,8.774612361,5.904830356,-14.35038735,-1.977991688,-22.93402652,0.923259736
-5.986355875,-21.34605351,-15.27062419,4.708992084,4.302707769,1.609898584,8.69679198,1.440463941,4.530282753,3.526504521,4.337967407,9.016526286,9.083890861,9.06629764,6.606411423,-8.872659069,-0.269757005,-17.8989022,0.125142117
-5.317784975,-16.0516038,-14.5123387,0.588053395,1.717713761,0.522518212,5.251732146,-2.860973146,-3.298930175,-0.76512198,-3.616303975,4.009688682,6.135793642,8.113925799,7.42030658,-3.471219328,0.991628811,-12.66849264,-1.228747265
-4.473377981,-10.65272249,-12.66226303,-2.261581006,-0.642869551,-0.156238516,1.949336918,-6.83623751,-13.0453016,-5.634065037,-13.52401144,-2.573102439,2.656817454,6.465460689,8.389110389,0.773456757,1.964414079,-8.310458086,-1.915250702
-3.99622618,-6.573670441,-10.64876844,-3.209207836,-2.536930298,-0.330162307,-0.469760207,-9.95585643,-23.58119356,-10.11376533,-23.64496083,-8.651906803,-0.60744611,4.956397236,8.598842118,3.222455926,2.786691469,-5.139444869,-1.232000649
-3.99366962,-4.071416102,-9.044614073,-2.622018312,-3.781013622,-0.167125448,-2.023803713,-12.19158972,-34.26869907,-13.78971336,-32.9110088,-13.05014936,-3.342074564,4.17124101,6.867640444,3.978747201,3.460914482,-2.751615492,0.5928521
-4.075010529,-2.362241323,-7.725134092,-1.436314762,-4.297735718,0.05903881,-3.392803917,-13.89144639,-44.89734129,-16.69503792,-41.36396141,-16.04954924,-5.754186682,4.12908018,2.819041379,3.811589222,3.87273046,-0.534080992,2.661506897
-3.706559079,-0.442359038,-6.111867613,-0.536449699,-4.150602091,0.15907964,-5.332834788,-15.44875871,-55.327973,-18.95893992,-49.76287706,-18.88744708,-8.286265048,4.386855962,-2.484130656,3.725329107,3.893838381,1.766183611,4.071783101
-2.668963134,2.08535266,-3.755425142,-0.307919468,-3.495258733,0.11907947,-8.049469752,-16.97269218,-65.18250493,-20.52582304,-58.69742105,-22.59308748,-11.15577725,4.437127889,-6.91431237,4.418351308,3.477963538,3.85659101,4.465950643
-1.234224729,4.798161447,-0.767779998,-0.552357597,-2.468437288,0.045483878,-11.01277156,-18.17698252,-73.83425472,-21.17270197,-67.92562079,-27.06959259,-14.07840269,4.081287637,-8.510528557,5.945183384,2.694875545,5.211584634,4.101874295
0.064870407,6.926978903,2.222195394,-0.726472727,-1.120736544,0.029770959,-13.35096833,-18.5735441,-80.70043597,-20.78981915,-76.46502365,-31.13741606,-16.41234699,3.520063511,-6.752533784,7.763395768,1.7109087,5.590690427,3.492963502
0.855235667,8.042398105,4.5112237,-0.322667691,0.524810999,0.049315445,-14.51297908,-17.86404696,-85.6206728,-19.66824441,-83.35212067,-33.49697095,-17.63999696,3.145378151,-2.968885078,9.111733048,0.754467911,5.315499443,2.977536575
1.177558784,8.372400654,5.783128682,0.81662875,2.331367544,-0.022116773,-14.69680721,-16.2863596,-89.06289961,-18.53052406,-88.44021196,-33.83811095,-17.82668572,3.233701583,0.457994578,9.480546635,0.083457753,5.077484623,2.566119303
1.387506444,8.547484689,6.243252228,2.396394999,3.973208725,-0.316834733,-14.74210107,-14.68147426,-92.02088456,-18.24203989,-92.57213473,-33.20499305,-17.69227276,3.770726597,1.587256792,8.905683575,-0.064543661,5.445940664,2.128213668
1.828280396,9.067919129,6.380822129,3.817491224,5.04535625,-0.879169009,-15.60036851,-14.19927855,-95.64334491,-19.38435945,-96.96854995,-33.31305308,-18.21603603,4.49080486,0.113597726,7.940857006,0.442033889,6.487809782,1.684556734
2.573940253,9.979287383,6.607217187,4.499821823,5.313993603,-1.651811829,-17.78672461,-15.77046481,-100.756428,-21.96897238,-102.3044241,-35.33888109,-20.04909954,5.041963222,-2.537348013,7.351316204,1.536396145,7.80466606,1.510560078
3.443861001,10.99692989,7.065543475,4.213844947,4.908770589,-2.541544439,-21.17107184,-19.6161063,-107.4749538,-25.45932589,-108.1942238,-39.10651665,-23.14937118,5.132719946,-4.247858469,7.713513537,2.931668676,8.937486971,1.954634719
4.226075058,11.89390355,7.705008197,3.233994275,4.264118667,-3.492395456,-25.16244165,-25.0627084,-115.0647771,-29.05321112,-113.4752089,-43.26508376,-26.87131675,4.595837547,-3.645369329,9.135028559,4.23269841,9.787944396,3.136703503
4.867691757,12.75086357,8.469447769,2.207611954,3.805699499,-4.493323023,-29.05537565,-30.77890098,-122.1416034,-32.02556667,-117.0449792,-46.27411624,-30.39189566,3.40876835,-0.961964052,11.22721855,5.153216997,10.70136118,4.789211813
5.449605401,13.83366581,9.381031899,1.79073875,3.603865226,-5.516209851,-32.26698154,-35.33146138,-127.173366,-33.9412026,-118.5892581,-47.41518949,-33.1247249,1.727729154,2.221306019,13.32351819,5.7053417,12.14333245,6.369619194
5.990661849,15.23603088,10.44575538,2.25322321,3.280109083,-6.454371459,-34.38423059,-37.78980381,-129.1087653,-34.67851168,-118.6574412,-47.0916122,-34.84546412,-0.083818322,4.100285297,14.81243434,6.206340741,14.23657673,7.346146507
6.302344268,16.64997683,11.50872591,3.29850793,2.278443456,-7.14057769,-35.14781021,-38.07953761,-127.8467631,-34.3355026,-118.086518,-46.28751108,-35.53900381,-1.51967228,3.830852749,15.40610318,7.053912468,16.53696356,7.438866848
6.073186998,17.50669731,12.24829013,4.232285312,0.325743801,-7.452897241,-34.51846134,-36.91350236,-124.2815695,-33.12369636,-117.2828025,-45.71166409,-35.21630524,-2.136705701,1.979103302,15.21383558,8.395849293,18.23768947,6.671828286
5.141680766,17.38656717,12.36480601,4.402825497,-2.264362956,-7.426285932,-32.80354534,-35.34669081,-119.8460781,-31.29885458,-115.9393828,-45.32863746,-33.92520677,-1.816726773,0.004054039,14.60599655,9.929039983,18.6593037,5.266675542
3.721740235,16.34686706,11.82198495,3.652820555,-4.692362629,-7.261790686,-30.65956037,-34.19513541,-115.7587399,-29.11069725,-113.3688915,-44.58281237,-31.93039769,-0.895721036,-0.794012516,13.96911802,11.00263766,17.67102455,3.515755461
2.35797822,14.88175197,10.92362411,2.490326258,-6.128273623,-7.197016752,-28.82518716,-33.62538635,-112.3832179,-26.74587636,-109.1218443,-43.02531102,-29.8115661,-0.019520052,-0.11176012,13.49979286,10.99208771,15.74781948,1.729292183
1.605069728,13.54458523,10.12996523,1.83851559,-6.203377471,-7.319021265,-27.67738556,-33.12505188,-109.0817525,-24.2836904,-103.3638545,-40.76346239,-28.25838895,0.223794288,1.259571429,13.13824758,9.701530842,13.63683166,0.227131847
1.660824958,12.54498675,9.73283782,2.478542764,-5.193642055,-7.46512236,-26.92779397,-31.85798644,-104.667657,-21.71678744,-96.73670787,-38.37297335,-27.62262826,-0.342484714,2.05133969,12.64172246,7.508291011,11.87720661,-0.716521931
2.233478109,11.64086161,9.63265872,4.505069207,-3.784161897,-7.305812307,-25.75438925,-29.20217305,-98.19880295,-19.05698747,-89.8821139,-36.406808,-27.57015154,-1.397566703,1.352445375,11.71840818,5.135190266,10.50009288,-0.999119932
2.745884318,10.38779881,9.389202278,7.138341127,-2.610898027,-6.568698203,-23.36267301,-25.17471596,-89.63714006,-16.46725223,-83.06594592,-34.95979033,-27.18051625,-2.370296339,-0.908156398,10.13801944,3.206034941,9.092213034,-0.788095764
2.721203697,8.519415316,8.512992292,9.049766005,-1.917563677,-5.248671251,-19.61526253,-20.51446496,-79.97717104,-14.30932411,-76.20354765,-33.64924102,-25.5211618,-2.83484094,-4.072227079,7.793161168,1.90205338,7.155400424,-0.459196642
2.066217658,6.155047732,6.791665425,9.056085938,-1.544182933,-3.651445604,-15.2604039,-16.37838168,-70.77257032,-13.03297908,-69.20544047,-31.98051639,-22.32430248,-2.760769669,-7.248366432,4.741177701,0.961043314,4.509316917,-0.358854458
1.064417109,3.706971464,4.434400664,6.796527534,-1.193613348,-2.237967862,-11.54816523,-13.80960732,-63.35362674,-12.94254928,-62.28774888,-29.74896677,-18.25959195,-2.446894992,-9.758632423,1.251423305,-0.001116744,1.473855589,-0.548427115
0.1203791,1.611266393,1.959333655,2.984026896,-0.724895969,-1.381813137,-9.468495576,-13.2468077,-58.19779049,-13.97677223,-55.95356428,-27.14896653,-14.56498155,-2.222779578,-11.23903531,-2.175445843,-1.113034107,-1.280391495,-0.749199496
-0.529334054,0.114549256,-0.07847347,-0.947735081,-0.242780563,-1.206003395,-9.134217914,-14.31409631,-54.7952214,-15.64789939,-50.66831137,-24.55676652,-12.27582885,-2.176119062,-11.45188573,-4.892192002,-2.116886163,-3.115860635,-0.570486428
-0.931696956,-0.754123362,-1.342510613,-3.617566289,0.049949793,-1.590239021,-9.734785168,-15.98490615,-52.03596176,-17.19464808,-46.52361484,-22.2322313,-11.59845576,-2.118380159,-10.12916162,-6.329889953,-2.583102828,-3.806755181,0.135267436
-1.311540218,-1.08413116,-1.825398991,-4.434838584,0.074183646,-2.302634565,-10.07670549,-17.03369605,-48.8459553,-17.87828729,-43.17379007,-20.20286899,-11.86140981,-1.785117295,-7.113749082,-6.284480175,-2.289325177,-3.677496077,1.080370567
-1.863868623,-1.002991373,-1.794574653,-3.852008526,-0.03133976,-3.128287472,-9.320371125,-16.56483892,-44.69588845,-17.27848086,-40.07171017,-18.37493169,-12.03879192,-1.073700289,-2.745671566,-5.088200521,-1.449771474,-3.409753806,1.696811883
-2.610476314,-0.684705447,-1.634359215,-2.979952259,-0.013579968,-3.903994292,-7.422551186,-14.38813048,-39.73701131,-15.46148759,-36.78092252,-16.6984813,-11.42968364,-0.113505809,1.869750018,-3.50986536,-0.602157502,-3.629119821,1.544759875
-3.402531966,-0.378173552,-1.664358633,-2.823950216,0.296260226,-4.480152853,-5.048426085,-11.08928801,-34.56860628,-12.96456446,-33.12251353,-15.202744,-10.01294206,0.86516103,5.089871539,-2.385539533,-0.234654419,-4.523751191,0.659676278
-4.027427831,-0.342577761,-1.99627196,-3.6445013,0.859365245,-4.706965797,-3.100779719,-7.775296889,-29.84078028,-10.60807357,-29.11458914,-13.89493525,-8.297294428,1.712470427,5.500565665,-2.175258443,-0.442328849,-5.736195357,-0.446838884
-4.319618733,-0.677575729,-2.474975236,-4.85475456,1.470910236,-4.50769036,-2.227153494,-5.60198015,-25.93240563,-9.185068144,-24.85746342,-12.67320341,-6.876674175,2.411411034,2.81079882,-2.722193084,-0.876769919,-6.602173566,-1.147135419
-4.209218929,-1.179774982,-2.738198706,-5.492684678,1.913451764,-3.989157205,-2.581434359,-5.272215187,-22.83089865,-9.107748493,-20.51000346,-11.37225641,-6.060444958,2.968438961,-1.739576172,-3.379541086,-1.020225074,-6.585842491,-1.141580942
-3.714123927,-1.388871524,-2.395350254,-4.912786186,2.089291163,-3.462430575,-3.862450936,-6.706950882,-20.18858745,-10.13461049,-16.31977298,-9.883053396,-5.788459239,3.284891086,-5.836223348,-3.432879962,-0.567218258,-5.628823192,-0.640922471
-2.919214497,-0.854366226,-1.260049228,-3.209333539,2.038703637,-3.29407887,-5.471642294,-9.034338495,-17.45462394,-11.33635831,-12.537279,-8.176151195,-5.757339668,3.180865868,-7.237197593,-2.549328772,0.371723244,-4.187240653,-0.155396599
-1.967327134,0.537385607,0.488724351,-1.101336462,1.858285426,-3.656843066,-6.657534195,-10.92617597,-14.01498962,-11.41399309,-9.147679903,-6.16066543,-5.55355332,2.590413792,-4.955655436,-0.972016641,1.374955573,-2.94437943,-0.077315334
-1.047699369,2.415223974,2.333125003,0.591731777,1.608437335,-4.368907927,-6.663208054,-11.16562184,-9.351031479,-9.317930343,-5.621584316,-3.539568584,-4.704170911,1.752853733,0.23335355,0.644087654,2.013078223,-2.406374525,-0.400171437
-0.357090432,4.080943424,3.646674859,1.474980443,1.285289543,-4.980178882,-4.966495896,-9.208883899,-3.249518969,-4.894614322,-1.030868016,0.079856176,-2.751192669,1.181753959,6.253091074,1.622935451,2.108699415,-2.654785332,-0.785738672
-0.03704448,4.879152107,4.007661331,1.734933562,0.859888063,-5.081401977,-1.596175902,-5.471087137,3.976171357,0.83382433,5.333770599,4.758916655,0.516234889,1.363605017,10.83692425,1.62435137,1.77898174,-3.397540849,-0.891350183
-0.124506768,4.534014572,3.403171861,1.865261451,0.331223331,-4.617397059,2.677767292,-1.16574427,11.39925261,6.025491766,13.17322455,9.784625864,4.73986768,2.387425258,12.60491383,0.761298488,1.278087804,-4.236474785,-0.661283275
-0.553849081,3.240935499,2.190125913,2.218966462,-0.254943886,-3.950293403,6.528694385,2.261006806,17.68731637,8.91597754,20.87083734,13.6897222,8.879357188,3.811408671,11.51883586,-0.552029099,0.801692849,-4.931031904,-0.34069291
-1.212340745,1.482768859,0.838768609,2.735614947,-0.823251487,-3.595311602,8.673353865,3.832074763,21.6197344,8.772708564,26.12486696,14.95742564,11.58201988,4.91941929,8.588910471,-1.887163986,0.405338935,-5.483132262,-0.227067146
-2.01053517,-0.277923852,-0.36828464,3.010683301,-1.292047059,-3.814273986,8.588234595,3.498828046,22.69249313,6.296428798,27.30994287,13.06728105,11.95861545,5.214714668,5.169141935,-3.03847655,0.057060966,-6.040507083,-0.40009259
-2.919192616,-1.826184342,-1.480410367,2.595733182,-1.585089923,-4.386623519,6.85806513,2.083990404,21.44006882,3.151085019,24.68845154,9.122113924,10.27198932,4.788344053,2.332037232,-4.090593026,-0.274402608,-6.756023121,-0.670962773
-3.950972572,-3.226255128,-2.777592622,1.274867843,-1.645304738,-4.758579597,4.847955163,0.723393839,19.20385601,0.871496403,20.51949408,5.447088233,7.957205933,4.268600884,0.613801909,-5.307078915,-0.597116056,-7.731140591,-0.779066006
-5.103523801,-4.681300492,-4.50318643,-0.854324568,-1.468949458,-4.476154784,3.849809389,0.138123507,17.41336397,-0.136322051,17.80657923,4.254928733,6.800378218,4.366199765,0.090493334,-6.916493477,-0.942127296,-9.041287137,-0.638939497
-6.30226467,-6.331714984,-6.616812509,-3.469589078,-1.143927522,-3.568867403,4.262911792,0.203391235,16.80563152,-0.786724652,18.4318572,6.223017644,7.751723799,5.340385642,0.559686463,-8.906276573,-1.392332706,-10.73326179,-0.406668478
-7.377678793,-8.104102173,-8.729140837,-6.138161809,-0.841167184,-2.569350963,5.392362131,0.116685493,17.10977485,-2.507173633,21.96822496,10.01036328,10.21898653,6.779551997,1.66076276,-10.92919974,-2.022193264,-12.718297,-0.314567792
-8.09410235,-9.676564903,-10.25445017,-8.364786531,-0.723987857,-2.129971896,6.030023632,-0.919892259,17.44215203,-5.961068153,26.05801293,13.13921482,12.42514417,7.861325817,2.942139528,-12.38976754,-2.780105977,-14.63250638,-0.442284073
-8.226360639,-10.57683668,-10.68237002,-9.621443294,-0.810941793,-2.518948115,5.412482069,-2.955310715,17.15452654,-10.22729447,28.13594318,13.68391908,12.65518433,7.907681962,3.971856628,-12.70348855,-3.431815141,-15.84455126,-0.646244886
-7.659173932,-10.38619867,-9.811663385,-9.465478166,-0.893630859,-3.386330388,3.858477018,-5.020695518,16.51459903,-13.10972325,27.27484593,11.59083238,10.52383952,6.843935697,4.510313911,-11.62033696,-3.65740704,-15.72214184,-0.711269308
-6.463366352,-8.971244002,-7.828486605,-7.755635647,-0.600622674,-3.990240631,2.607505791,-5.586743209,16.67325708,-12.47422284,24.82113109,8.692289355,7.326621717,5.25097073,4.629634419,-9.429129578,-3.266549836,-14.049117,-0.571409758
-4.896540553,-6.621176027,-5.208791427,-4.819214354,0.400103326,-3.719001636,2.959324181,-3.50884186,18.87260575,-7.745450218,23.37253996,7.414885994,5.182477208,3.991904657,4.644156735,-6.886729978,-2.378212437,-11.29871916,-0.379396148
-3.304169325,-3.981101383,-2.516207254,-1.385188091,2.182950976,-2.516465233,5.323145382,1.140337781,23.42571333,-0.508712358,24.86975225,9.115192058,5.565844807,3.676188869,4.860226775,-4.868143493,-1.413970224,-8.505056757,-0.351439381
-1.959679412,-1.775961003,-0.207961033,1.74582314,4.484883666,-0.897975367,8.849176199,6.918819365,29.21602799,6.268951542,29.20110834,13.20786865,8.280925794,4.30572874,5.329608489,-3.929445508,-0.886300058,-6.745639814,-0.537133783
-0.940583533,-0.469938492,1.458787337,4.090862991,6.82693822,0.433360704,11.8947988,11.6854032,34.13330251,9.933217788,34.29438568,17.63315075,11.60225718,5.301395268,5.814748405,-4.065950431,-1.11840668,-6.553363544,-0.747343408
-0.136169493,-0.08488379,2.392896569,5.637655139,8.751999913,1.057022898,12.99371606,13.69533277,36.20761912,9.631408574,37.54706227,20.24077857,13.44946308,5.862067392,5.997916026,-4.834623632,-2.081861953,-7.660852352,-0.729130264
0.600803616,-0.314689936,2.557366766,6.630183181,10.00961048,1.035897876,11.67555578,12.4486448,34.70450619,6.603677679,37.50164279,20.0787297,12.73575842,5.428425019,5.742792711,-5.748815379,-3.445155153,-9.253630408,-0.434992015
1.26173182,-0.85479057,1.878417212,7.161839243,10.57046012,0.733127861,8.635491359,8.796997693,30.47364089,3.123726799,34.59921397,17.76050078,9.964579302,3.997508584,5.164119228,-6.639501071,-4.773286054,-10.5375517,-0.124196034
1.606491833,-1.681892992,0.261169933,6.936186863,10.49807044,0.447812313,5.22951866,4.316556854,25.37358649,0.884313335,30.62587831,14.82442528,6.752317347,2.138640457,4.446699166,-7.695064538,-5.731793018,-11.20433805,-0.172525817
1.291738768,-3.037678959,-2.280960189,5.437611939,9.818230852,0.199938644,2.702614961,0.417675728,21.22063349,-0.014294616,27.43515363,12.68601771,4.728428329,0.715723085,3.613806173,-9.150646413,-6.185092342,-11.48315178,-0.737731865
0.132304669,-5.106774304,-5.476209187,2.408579638,8.510081829,-0.165792521,1.649588873,-2.234802808,18.96937889,-0.801877201,25.93696427,11.93208128,4.622956583,0.453286436,2.519659041,-10.89957052,-6.183770374,-11.80368969,-1.581475467
-1.699205088,-7.6544085,-8.763579083,-1.756710553,6.613872814,-0.688099161,1.951744763,-3.716495767,18.56775875,-2.79736508,25.95699027,12.30232422,6.084110977,1.554825398,1.130981534,-12.38653999,-5.903874821,-12.38530931,-2.229412542
-3.706656323,-9.963180251,-11.46139353,-6.063691929,4.329372833,-1.11443431,3.072152609,-4.424741345,19.39276831,-6.199728922,26.8041219,13.15491164,8.162817716,3.570595522,-0.155062273,-12.92058588,-5.582864217,-13.07735387,-2.351398773
-5.340396638,-11.1906374,-13.07247408,-9.433287785,1.980988978,-1.042692831,4.408108988,-4.662434279,20.80283277,-9.84784633,27.90034785,13.95449032,9.964048647,5.60698241,-0.524179941,-12.18314664,-5.439345014,-13.52439674,-2.031911425
-6.315656092,-10.91826287,-13.53725756,-11.32111719,-0.145958444,-0.283256074,5.484633756,-4.526284913,22.39697512,-12.09745813,28.96796297,14.47418244,10.99541741,6.79395177,0.784779023,-10.51038956,-5.554737602,-13.45429398,-1.680954286
-6.742071955,-9.470718989,-13.24732791,-11.97924179,-1.956305987,0.879153955,5.990729266,-4.068494869,23.93389913,-12.0823087,29.80737747,14.7324917,11.12206193,6.762701915,3.84948988,-8.686219945,-5.761562112,-12.82685869,-1.653348189
-6.969299861,-7.732308204,-12.78412958,-12.1712609,-3.53127395,1.792369187,5.792632027,-3.456699017,25.17778083,-10.3431353,30.09649014,14.86980847,10.38091865,5.845787695,7.79430031,-7.384396657,-5.652193893,-11.76477674,-1.919993152
-7.279232544,-6.575090234,-12.55073446,-12.57360662,-4.938880507,1.881714843,5.00400436,-2.906927997,25.93122006,-8.335953827,29.54939292,15.09328904,8.930070933,4.857639964,11.18120253,-6.710930278,-4.789863384,-10.41680973,-2.108655398
-7.676974819,-6.325889792,-12.55828682,-13.32218178,-6.032542515,1.10218467,4.041696918,-2.439079742,26.2386024,-7.2395281,28.3222451,15.63933591,7.152904158,4.578399239,12.8377984,-6.239255944,-3.051517375,-8.945737003,-1.905556695
-7.943537947,-6.670284433,-12.52222044,-14.0166999,-6.445724852,0.025565679,3.526121258,-1.729788158,26.49757285,-7.039301262,27.21150784,16.64855843,5.696806367,5.2721805,12.50977044,-5.52298169,-0.87239274,-7.651869349,-1.461771255
-7.884902016,-7.034722757,-12.1832632,-14.11343974,-5.84124559,-0.541131064,3.988807589,-0.28560732,27.26218599,-6.624627289,27.30528611,17.97878289,5.252637556,6.558646424,10.83598425,-4.645380813,0.844789276,-7.03187711,-1.40033905
-7.540570444,-7.098520994,-11.58188097,-13.34731367,-4.241804806,-0.13822982,5.541441523,2.139345803,28.82563087,-4.797077277,29.23637043,19.1375598,6.148092622,7.712215914,8.698625331,-4.293903113,1.189647126,-7.571909428,-2.342816878
-7.152612948,-6.995986095,-11.04309674,-11.85576907,-2.15516385,1.003806224,7.755698885,5.230687812,30.93553765,-1.336759775,32.60353583,19.49412642,8.068558396,8.158084487,6.534921615,-5.223371499,-0.181421799,-9.325714218,-4.308258349
-6.915457449,-7.055049992,-10.86535896,-9.971697869,-0.334087741,2.129194834,9.887986318,8.229998555,32.94030235,2.770956155,36.0790332,18.7063959,10.18355065,7.801681922,4.227802055,-7.503488309,-2.752938118,-11.61196205,-6.502857605
-6.736049268,-7.336291723,-10.9681902,-7.932169827,0.699800264,2.508614423,11.32771505,10.46067317,34.3031751,6.142154315,38.2120781,17.06516121,11.6497316,6.97457259,1.658994394,-10.18760636,-5.387426029,-13.18577451,-7.744171586
-6.24289545,-7.420596758,-10.81823,-5.774696686,1.017688035,1.959170508,11.956826,11.86047922,35.06648266,8.152741285,38.3807096,15.44991963,12.14183205,6.088419365,-0.637922615,-11.75931628,-6.976601565,-12.9121548,-7.253149527
-5.07198099,-6.678645786,-9.750234502,-3.471566309,1.225186678,0.941885487,12.15077582,13.0429804,35.83973973,9.448667604,37.19926438,14.854736,12.01306048,5.307984479,-1.45102905,-11.10672847,-7.080847749,-10.5313714,-5.221031355
-3.205215371,-4.822508864,-7.477997142,-1.117183056,1.983314774,0.176585113,12.41203358,14.75467104,37.2671606,11.32922801,36.07883753,15.7766519,11.96160993,4.506352128,0.302680456,-8.322817352,-6.120967807,-6.940069614,-2.702140439
-1.067527669,-2.266170274,-4.409748618,1.041159898,3.447593088,0.084485114,12.90996888,17.10772523,39.38955335,14.47394263,36.25342465,17.88434192,12.45832827,3.499429165,4.519764063,-4.713099025,-5.001647033,-3.708780552,-0.89798057
0.724718138,0.04571243,-1.502098789,2.746177377,5.062249746,0.489738806,13.28248052,19.2217539,41.44574237,18.07988328,37.94982832,20.190854,13.36647379,2.308513263,9.543336016,-1.968034916,-4.45522366,-2.122549471,-0.370232399
1.778830586,1.24556972,0.274260011,3.865743227,5.902867618,0.795910625,12.86465819,19.65315979,42.32214583,20.20470725,40.24119223,21.59720952,14.02491355,1.188289506,12.96994886,-1.085248857,-4.584686908,-2.41860147,-0.765434313
2.171465317,1.120986476,0.48837369,4.348178438,5.344264598,0.480379652,11.1897035,17.38795576,41.32581951,19.15652289,41.6283334,21.43762656,13.71252965,0.390489033,13.15944852,-1.813564735,-4.911889438,-3.769004483,-1.217831279
2.323369101,0.209726626,-0.56245352,4.041391202,3.560528245,-0.486255816,8.400001309,12.69026445,38.68016275,14.89088685,40.92959582,19.71048781,12.14723791,-0.103583844,10.32110914,-2.990106036,-4.841713844,-4.991912306,-1.064170779
2.608849573,-0.651378579,-2.136511357,2.617457656,1.4627961,-1.612186735,5.266382901,7.139256156,35.36568382,9.292390295,37.93506348,16.94308944,9.684812543,-0.601900965,6.295917607,-3.469765148,-4.148242809,-5.416104244,-0.289661191
3.02949497,-0.94712013,-3.56038504,-0.205537222,0.089956684,-2.250487128,2.79152206,2.756452378,32.46256397,5.035058486,33.50634454,13.87729207,7.124716544,-1.41599418,3.165610907,-2.927023278,-3.107404282,-5.225257126,0.611123337
3.228531142,-0.777185537,-4.580190016,-4.244910971,-0.115798621,-2.065058087,1.659936231,0.802330766,30.53837784,3.811364666,29.15212773,11.20201077,5.291505346,-2.512503841,1.779658089,-1.955548665,-2.210337947,-5.054854597,1.171313693
2.832777802,-0.618136583,-5.324634741,-8.608926353,0.386725934,-1.247217545,1.888207651,1.08260234,29.5364101,5.233742813,26.34498604,9.421441226,4.656493674,-3.437875706,1.377881623,-1.461800333,-1.730768868,-5.239140344,1.386911846
1.827845359,-0.799846622,-5.980267593,-11.95548409,0.590567264,-0.344563842,2.876082612,2.240024326,29.15181461,7.228801942,25.89181487,8.804476595,5.174700772,-3.635646368,0.582894424,-1.881631758,-1.515362971,-5.389430722,1.679087435
0.639689946,-1.165045948,-6.49664122,-13.20027347,-0.295122782,0.140611886,3.790631265,2.791576806,29.26366166,7.62684043,27.60115039,9.345677138,6.356854362,-2.922385088,-1.124323233,-2.836352771,-1.156017925,-4.690643431,2.450486555
-0.157881812,-1.196867326,-6.57682115,-12.19741906,-2.221581319,0.075451142,4.025512133,2.148156032,29.99661488,5.758824594,30.385983,10.75751613,7.500420557,-1.711637545,-2.761716659,-3.452705552,-0.376056473,-2.675743714,3.658974804
-0.272619765,-0.481000767,-5.937176415,-9.840707754,-4.270508737,-0.272697169,3.477321059,0.911372035,31.39661535,2.89132017,32.80152077,12.5709159,7.990193531,-0.752603115,-2.65122935,-3.041662179,0.707751706,0.194557249,4.802439332
0.096024138,0.91656532,-4.582335138,-7.431770601,-5.240307832,-0.476592993,2.533879466,0.310776284,33.12136228,1.228072499,33.81943847,14.35496953,7.585189163,-0.553429282,-0.019434241,-1.58609431,1.667397372,2.687680492,5.331688142
0.441106318,2.486919409,-2.839462425,-5.746635735,-4.431048388,-0.249884967,1.843023057,1.269833463,34.5580232,2.279475027,33.44781784,15.93458256,6.587548683,-0.948784018,4.011328954,0.3091462,2.115609502,3.634385136,5.124496718
0.373235937,3.688042075,-1.121795075,-4.518215442,-2.082821773,0.407630686,2.012825769,3.799689066,35.35420556,5.828543897,32.78430784,17.43538057,5.776674011,-1.186093688,7.004128914,1.901904033,2.032193599,2.812927748,4.599283436
-0.066712985,4.359055772,0.361930887,-2.76557502,0.811221292,1.282904094,3.36926468,7.095934806,35.87741111,10.20781984,33.35982055,19.09943743,6.063592714,-0.494860755,7.012771772,2.810348295,1.798485165,1.175704442,4.363716728
-0.464799947,4.776076779,1.687993432,0.263531827,3.145611291,2.133323723,5.829253347,10.15392141,37.07374258,13.58178821,36.09494313,21.00871972,7.986275398,1.2976177,4.176321621,3.148566678,1.916246806,0.205168631,4.69935844
-0.41027868,5.310715245,3.016595749,4.28219527,4.327398288,2.819772962,8.902609146,12.37375708,39.68269361,15.20447146,40.53433525,22.94573528,11.32038051,3.593470695,0.751811476,3.259422717,2.636325297,0.858827833,5.323855873
0.122902947,6.005916178,4.298113923,7.957649819,4.474554039,3.309558714,11.82522199,13.7323225,43.38763353,15.72277716,44.93451424,24.51234745,15.07514244,5.434329468,-0.531133105,3.327919448,3.779417493,2.883641672,5.629807218
0.704960418,6.457687404,5.170631009,9.756435778,4.123033378,3.596313994,13.80815332,14.5106733,46.67094213,16.39101932,47.23882824,25.40504931,17.93443996,6.167843309,1.472274481,3.215321369,4.865901519,5.000871688,5.190307611
0.749942287,6.123524677,5.172968881,9.008293509,3.7325268,3.643129014,14.33524748,14.91068104,47.66127879,17.89750115,46.33483113,25.61020154,18.91288111,5.847577573,5.488515178,2.629625978,5.432334434,5.80990855,4.100542567
-0.051290828,4.803595491,4.117302334,6.368984452,3.382883366,3.409024692,13.38235317,14.90498666,45.45049618,19.7415758,42.74170446,25.36233039,17.84001536,5.07668687,8.876454955,1.454068186,5.291779313,4.741255698,2.87716584
-1.501886516,2.882684603,2.308197447,3.326244578,2.851304076,2.924457046,11.42916329,14.38230324,40.88762257,20.60456102,38.24659338,24.92781622,15.39132558,4.467191726,9.694583865,-0.0634674,4.572673514,2.387589529,2.021842525
