Channel 1 - P4,Channel 2 - O2,Channel 3 - P8,Channel 4 - T8,Channel 5 - C4,Channel 6 - Cz,Channel 7 - Fz,Channel 8 - F4,Channel 9 - Fp2,Channel 10 - F8,Channel 11 - Fp1,Channel 12 - F7,Channel 13 - F3,Channel 14 - C3,Channel 15 - T7,Channel 16 - P7,Channel 17 - P3,Channel 18 - O1,Channel 19 - Pz
6.668716865,-5.182298324,-25.08448422,-35.18807167,-19.23750309,-30.46320206,-62.67698209,-42.59698271,-48.22777417,-36.847928,-45.59001751,-26.01760519,-25.14309156,-22.70880743,-26.60837802,-13.72452019,-8.478206099,-33.61232209,-20.49392773
0.761981572,-10.38251041,-22.44860953,-30.11633605,-18.81686995,-27.74942497,-54.37991868,-36.1479844,-51.00458754,-31.48577315,-55.00302297,-38.40368344,-29.71704922,-23.58578138,-22.84998882,-16.76474614,-11.98988475,-30.82365833,-20.61090382
-5.271669168,-13.04199189,-14.28807145,-18.11732935,-13.62576316,-16.32502885,-31.15181542,-22.27649604,-43.69881774,-21.39688917,-51.24486375,-41.62279532,-25.73513577,-16.2144928,-14.78782901,-15.62658424,-10.72788837,-19.71914342,-13.70986627
-7.934923276,-11.55154507,-4.461582734,-4.812629098,-6.520164129,-2.48072552,-6.717717619,-8.884031254,-31.56867819,-11.70308917,-38.98077877,-36.11606382,-16.4624198,-4.729055563,-6.960392856,-10.67834812,-5.466555998,-6.668654836,-3.843474673
-6.327009892,-7.140119859,2.455300829,4.161739645,-1.237518918,6.731913506,6.379833326,-2.575334919,-21.22943225,-6.515310292,-26.42593647,-26.56473775,-7.351816145,4.561465947,-2.683119222,-4.624868935,0.463319647,1.579426002,3.614778249
-2.480202849,-2.864416385,4.057677697,6.498966875,0.034213193,8.005019189,4.743995967,-4.482799492,-16.30325414,-6.426536064,-19.5245195,-18.4060956,-2.445761108,7.317904724,-2.320293565,-0.708905234,3.499553121,2.180236686,5.463570932
0.453842994,-1.306894446,1.392431944,3.953767467,-2.068987927,3.378188786,-4.96047438,-10.18918614,-15.72403256,-8.688632232,-18.57888327,-14.47450564,-2.227505092,3.750586694,-3.836276697,-0.554510217,2.280542778,-2.480956683,2.449067269
0.624191858,-2.78827964,-2.18633842,0.264608818,-4.846800302,-1.971112067,-12.19444945,-13.52738183,-15.5656959,-9.693792159,-19.40655121,-14.02403576,-4.175969668,-2.107430313,-4.883565318,-3.230352591,-1.616191097,-7.166811215,-1.775410475
-1.378141612,-5.411660255,-3.596070529,-1.826057551,-5.676676067,-3.807937257,-10.64141645,-11.18321217,-12.56876495,-7.692058359,-17.52835242,-14.39521635,-5.216540552,-5.669724822,-4.661434422,-6.16242387,-5.082769347,-7.867564688,-3.512821368
-3.386475059,-6.759314773,-2.066495067,-2.098796197,-3.888412702,-1.632940189,-2.062761052,-4.654929386,-6.489592327,-3.694918628,-11.80704817,-13.62903575,-4.01894649,-5.030257723,-4.185430977,-7.121533047,-5.837517339,-4.467560231,-1.507749347
-3.623511174,-5.794921016,0.766582672,-2.025784235,-1.009894664,1.705639942,6.441826343,1.606006457,0.331751961,-0.116837482,-4.830166367,-11.88300967,-1.515116651,-1.820642323,-4.995001054,-5.749634478,-3.890048665,-0.189697723,2.641461546
-2.080867558,-3.477571696,2.540856967,-2.700187975,0.666360001,2.872096248,8.852399505,4.044720855,5.403854786,1.482213817,-0.202823009,-10.75210971,0.408994402,0.656180588,-7.535816459,-3.535596635,-1.111141746,1.404850069,6.142759296
-0.27298207,-1.732926513,2.135135934,-3.535975175,-0.032585176,0.847727082,4.892121056,2.661535699,8.237158706,1.623192107,0.6617605,-11.39172849,0.697639048,0.268357528,-10.57531286,-2.405266004,0.53245607,-0.70378729,7.235183283
0.246178961,-1.762866118,0.390811881,-2.850072004,-2.311966305,-2.520641751,-0.516792954,0.534278455,10.44863376,2.206413312,-0.432755287,-13.20892868,-0.117154924,-2.431434524,-12.06342202,-3.136468459,0.525392194,-4.456512287,6.261836268
-0.765770072,-3.121089484,-0.807664531,0.34886355,-4.176478536,-4.394327427,-1.944516065,0.916354882,13.96168532,4.655366753,-0.240852428,-14.23022614,-0.631633676,-5.031601414,-10.6765258,-4.844468317,-0.078994962,-6.6924859,4.973870333
-2.150557602,-4.24123963,-0.166271746,5.111139925,-4.093483472,-3.435511295,1.979832054,4.482499921,19.05359095,8.574674263,3.090968983,-12.74480577,0.064964686,-5.470798536,-6.809239871,-5.84517448,0.114665343,-5.810284358,4.869748061
-2.48866771,-3.863805068,2.042573036,9.035157893,-2.183410242,-0.793267055,7.843747033,8.937015437,23.98969888,12.03541535,8.571452058,-8.76659052,1.632807659,-3.67075079,-2.295051012,-5.096418496,1.472681245,-2.911535851,5.996173723
-1.392615845,-2.115691876,4.341755111,10.0864414,-0.035190126,1.097503012,10.76222644,11.09336291,26.48988562,13.16150309,13.36134656,-4.086359208,2.919027853,-1.317678095,0.856335053,-3.027969182,3.029112449,-0.652551492,7.084086834
0.171844609,-0.37668066,5.283296303,8.140751268,0.614442226,0.705478399,8.578776934,9.523397148,25.67450488,11.62469835,15.17068815,-0.913695859,3.087389118,-0.18349113,1.73143313,-1.152610178,3.441329461,-0.956310138,6.740230543
0.753824256,-0.12604812,4.465070674,4.916074293,-0.77107843,-1.34324238,3.388859916,5.581147162,22.8004313,8.822028324,13.96433946,-0.258869962,2.383615062,-0.564674187,0.924604437,-0.863318056,2.277209918,-3.558734022,4.62909723
-0.336169947,-1.777967381,2.582390265,2.416716988,-3.195911603,-2.931353786,-0.605055226,2.122844072,20.22416683,6.681623779,11.67698251,-1.341771182,1.883860985,-1.173361695,-0.072257876,-2.421704445,0.458985976,-6.49791664,1.720393504
-2.47747037,-4.436732903,0.667315499,1.323150434,-4.981651095,-2.330560308,-0.74036021,1.176903708,19.56169488,6.173657809,10.42856575,-2.401033889,2.508229233,-0.458544064,0.053274016,-4.888556709,-0.520174174,-7.949692197,-0.488497833
-4.297462681,-6.673946606,-0.697141301,0.747905206,-5.036064192,0.377789051,2.163995355,2.545556404,20.62144903,6.755217431,10.91623285,-2.134511289,4.203638734,1.901805815,1.661474896,-6.926232724,0.104956713,-7.744586357,-1.074539037
-4.785043801,-7.600873845,-1.535962043,-0.521397615,-3.532782228,3.50008488,5.015609155,4.354947857,21.91446182,7.10092072,12.29460277,-0.577194103,5.999740827,4.667203259,4.117657437,-7.736579651,1.705328391,-7.309857811,-0.266080399
-3.994449746,-7.363151407,-2.046314637,-2.552052088,-1.563036674,5.250401702,5.429073416,4.867170639,22.15129495,6.378401059,13.40562241,1.201936062,6.847701859,6.107100893,6.344710652,-7.410351374,2.795044855,-8.214503117,0.846148502
-2.815624623,-6.769592316,-2.150482774,-4.021311167,-0.171707197,5.20340756,3.719886193,3.908677871,21.3570496,4.949817718,14.04299013,2.18468156,6.485252048,5.490894709,7.486245522,-6.561668413,2.290047426,-10.67592281,1.129565506
-2.128490886,-6.511559475,-1.545078749,-3.470137928,0.38359108,4.458169282,2.275098195,2.781233997,20.69587665,3.972756482,15.04751839,2.282746887,5.594598869,3.68935397,7.243880312,-5.727965207,0.401213566,-13.33436301,0.117291606
-2.136961541,-6.688006437,-0.176974717,-0.864716352,0.60521862,4.486166522,3.111699162,2.927998322,21.30307808,4.353216459,17.23291776,2.307987586,5.167432547,2.404868025,5.777237136,-5.108545948,-1.577151069,-14.43800709,-1.829921638
-2.41304509,-6.963237624,1.40953756,2.103156089,1.111034911,5.765986642,5.970384325,4.649628494,23.26823994,6.007534789,20.27823649,3.167393247,5.669026031,2.743722455,3.382148942,-4.773549359,-2.358303782,-13.36059358,-3.875809672
-2.479389265,-7.068249916,2.320451441,3.431745739,2.009638755,7.407459496,8.638454386,6.970464143,25.67844767,8.032429757,22.75150573,5.054643366,6.720838014,4.36568927,0.277785042,-4.964297435,-1.677777853,-11.13331306,-5.224673428
-2.291851641,-7.088694658,2.034646713,2.757918806,2.830992663,8.024071497,9.079299348,8.631178451,27.59566885,9.544442149,23.34796154,7.330938166,7.526067494,5.884927133,-3.302918977,-6.025210228,-0.390784001,-9.563408591,-5.466421657
-2.158527013,-7.26997418,0.961751057,1.999355568,3.007859578,7.008248257,7.335558943,9.198012002,28.98258811,10.39452037,22.24245935,9.123853766,7.609851788,6.094817976,-6.799121564,-7.928982608,0.368032634,-9.721735048,-4.6456032
-2.23614127,-7.592313226,0.259660805,3.867845432,2.424562624,5.064628542,5.471787281,9.283078837,30.67772766,11.14754024,21.2593753,10.04544916,7.204790104,4.923449757,-9.094152974,-9.864636538,0.190892517,-11.07773713,-3.146530584
-2.177640633,-7.608288899,0.965125611,9.322108612,1.532990425,3.570689319,5.664097085,9.774271054,33.44071066,12.41906328,22.55325221,10.38250501,6.964588119,3.339673187,-8.710590733,-10.43656609,-0.294261669,-11.96861985,-1.516677456
-1.352234564,-6.769543853,3.130859821,16.14503721,0.954174567,3.380844025,8.212432507,10.89219831,36.97858428,14.22498686,26.80965998,10.64369679,7.296383624,2.390077616,-4.527532183,-8.539907179,-0.030521983,-10.9649668,-0.276262028
0.523160503,-4.967017706,5.72009938,20.10025652,0.941445073,4.141424173,11.26594035,11.98964942,39.90773191,15.93562783,32.46357158,10.95127022,7.928731944,2.284313965,3.284822229,-4.328074248,1.516921231,-7.997422193,0.276116584
2.946890739,-2.762733595,7.395291458,18.03582432,1.18094555,4.683225563,12.4679769,12.24708791,40.76553695,16.83387613,36.65143677,10.89074744,8.109737746,2.33488222,12.73592553,0.53932812,3.890667281,-4.377519896,0.204071464
4.864135152,-1.047554772,7.567011833,10.56705663,1.087363624,4.095171095,11.01447533,11.54536471,39.22250093,16.72154298,37.21111852,9.980289774,7.271980981,1.746260575,20.46167618,3.724107785,6.015609937,-1.785669406,-0.086659961
5.438093843,-0.386534919,6.819230125,2.095761539,0.319790254,2.518066765,8.300297637,10.63440416,36.42719147,16.00107428,34.19201497,8.313657399,5.595020099,0.487041736,23.19941709,3.647517532,7.046315615,-1.094024576,-0.079321148
4.71215167,-0.618568027,6.337658269,-2.081071709,-0.926400035,0.995343534,6.631508535,10.40228994,34.14526931,15.17611281,29.73292697,6.72752131,3.97914341,-0.566363819,19.60556579,0.543679197,6.950600402,-1.920205224,0.516803618
3.570061287,-1.066742012,6.817622682,0.488277797,-2.07578365,0.567259318,7.196494615,10.93082507,33.39348871,14.27546106,26.46010257,6.243841101,3.430049427,-0.348793358,11.28470626,-3.652466058,6.379352788,-3.133289339,1.548518325
3.002225733,-1.172479473,7.787941065,7.632501616,-2.60964599,1.42813291,9.093202262,11.27160527,33.71222879,12.79158417,25.68216641,7.200236083,4.330637926,1.451147144,2.179034214,-6.539265791,6.014085308,-3.779497192,2.49642406
3.29967955,-0.984233679,7.9512439,14.1046143,-2.400078272,2.85198011,10.220053,10.24559322,33.68181787,10.25297364,26.72699564,8.820126551,6.160137406,4.053519861,-3.556847603,-6.751507052,6.002823491,-3.669960485,2.815739381
3.868579181,-1.062879871,6.28278972,15.29589588,-1.688449427,3.881584683,9.186290907,7.619880488,32.23465103,6.940460472,27.78897935,9.669100885,7.865142396,6.145807325,-3.989443509,-4.70233594,5.952800868,-3.274074966,2.301211556
3.815222138,-1.896471484,2.975489886,10.35159924,-0.789275384,4.12594453,6.549967529,4.607386093,29.64870496,4.060615121,27.47778268,8.723597907,8.592598625,6.859950705,-0.555769616,-2.110771703,5.417892244,-3.164567256,1.210997294
2.775350943,-3.365880994,-0.57176153,2.467935618,0.17030518,3.978054287,4.34428324,3.155946987,27.38710996,3.099915752,25.82074874,6.237895672,8.246245946,6.357766759,2.947494794,-0.735931172,4.393566333,-3.545016932,0.070356694
1.253956159,-4.759898371,-2.738429758,-3.645759157,1.235637039,4.128988613,4.365314451,4.511641344,26.92173617,4.771505033,24.04187428,3.699275965,7.490723019,5.580053731,2.973512366,-1.250516148,3.371860988,-4.190542562,-0.676214024
0.185703343,-5.33934291,-2.850714759,-5.067425396,2.381425499,4.876886774,6.718771283,8.185842087,28.51895855,8.357282664,23.46520077,2.848599622,7.24479876,5.42736115,-1.299360654,-2.989094959,2.936515975,-4.716678481,-0.891075783
0.121504689,-4.946756893,-1.596589439,-2.280504128,3.318500513,5.862307903,9.813812249,12.172108,30.98095697,12.00484829,24.5118302,4.471654485,8.051895914,6.078560945,-7.364478209,-4.611462435,3.28461068,-4.859051268,-0.695384944
0.771734633,-4.110506572,-0.376357723,1.828616871,3.591027941,6.427711768,11.70263141,14.28123267,32.54067905,13.83917188,26.53879262,7.852389919,9.757136018,6.971574917,-11.13369822,-5.087285743,4.091836307,-4.553147545,-0.232017869
1.305538644,-3.547457194,-0.148913893,4.467843792,2.932920573,6.226426071,11.56400815,13.59853328,32.18207636,13.13544849,28.49254941,11.27439268,11.66613612,7.374018771,-9.837894588,-4.285802949,4.802361104,-3.864599321,0.524560233
1.122424105,-3.516210187,-0.724668026,4.837017662,1.590726872,5.513462951,10.13285451,11.00661551,30.3527257,10.74204747,29.71726656,13.16635195,13.02351798,6.998264412,-4.019810224,-2.856846286,5.052780143,-2.942382948,1.733447368
0.39283801,-3.613767704,-1.054950576,4.104580185,0.305694203,4.879603619,8.878874797,8.467334066,28.56176632,8.475046519,30.25736456,13.0353051,13.46418632,6.150526158,2.822114337,-1.639106154,4.864006568,-2.051584257,3.457475581
-0.118085288,-3.207929503,-0.228254953,3.853088094,-0.096857546,4.708359897,8.784405659,7.677843713,28.24079841,7.92077387,30.53092509,11.55639714,13.15615789,5.363514721,6.689715957,-1.10217636,4.489576995,-1.562193068,5.44527712
0.222928421,-2.11302856,1.686598526,4.552720274,0.755008132,4.864569437,9.768659371,9.084783196,29.7666221,9.46038525,30.79911577,9.877876926,12.59129926,4.90890848,5.863475876,-1.179178794,4.127320748,-1.763659434,7.131564836
1.303432548,-0.878808244,3.648747357,5.356891121,2.500815814,4.878064057,11.08784778,11.84208943,32.32926986,12.12822245,30.95271847,8.782035385,12.21448286,4.636682543,1.997116732,-1.480419391,3.786036824,-2.578205928,7.890937123
2.322068527,-0.39654481,4.469724164,5.193555615,4.236046046,4.42012605,12.14923966,14.54235508,34.62028214,14.31948039,30.7615477,8.360254925,12.16378548,4.241679206,-1.230814609,-1.62179473,3.397754964,-3.444128209,7.382780792
2.466430568,-1.142990589,3.742227062,3.976548259,5.044422831,3.619974291,12.92237537,16.06926605,35.72011249,14.81370512,30.27503479,8.34196503,12.28720741,3.658847488,-0.873471244,-1.42005032,3.001691375,-3.58581221,5.754854049
1.602543552,-2.729254311,2.101708338,2.757784418,4.517253158,2.945327898,13.65854666,16.0202748,35.52564435,13.44018236,29.93828657,8.634958632,12.38871964,3.195485234,3.161084034,-0.904216738,2.764447771,-2.569232597,3.574216229
0.358510709,-4.177166597,0.633358091,2.697281737,2.933923146,2.785857352,14.3538572,14.62213021,34.52742536,11.02309354,30.27795955,9.493105144,12.48577838,3.277554748,8.146618638,-0.247993902,2.793759658,-0.731998371,1.538117918
-0.466479382,-4.712923267,-0.044508355,3.84356357,1.028860044,3.137595225,14.60043841,12.43675461,33.27505543,8.746723612,31.42549126,11.13443773,12.8523174,4.049320255,10.63770007,0.283107605,2.945499804,0.910748481,0.148033808
-0.627608217,-4.401978743,-0.239952874,4.895506944,-0.458515195,3.66377733,14.00522251,10.14901649,32.02829978,7.423179296,32.90628468,13.20967917,13.78943523,5.192877532,9.026807371,0.386355187,2.862361902,1.301334674,-0.470981134
-0.633994756,-4.068651708,-0.820090123,4.228103718,-1.152447632,4.040940049,12.72209086,8.461488488,30.81513134,7.129703092,33.90359342,14.73347207,15.29638209,6.13156238,4.673475399,-0.155018829,2.266592556,0.077319539,-0.532754061
-1.239024181,-4.556309065,-2.354787761,1.320127233,-1.137904919,4.242634162,11.48979036,7.936386699,29.70948776,7.371063654,33.81137697,14.71520409,16.93006112,6.448716593,0.827031975,-1.295535603,1.262376816,-2.155878135,-0.39267777
-2.683320343,-5.96025597,-4.514917294,-2.664734318,-0.800108414,4.498476135,11.05044994,8.720985582,28.97203128,7.557904484,32.658811,13.06307354,18.02897085,6.184179214,0.197765955,-2.637789919,0.350943905,-4.247634102,-0.323909273
-4.384833249,-7.500398181,-6.243615423,-5.686669567,-0.563527653,4.994053436,11.46373683,10.33915318,28.88340758,7.419445796,31.09670242,10.96903292,18.19216082,5.789883587,2.977832357,-3.576510845,0.093168589,-5.304353573,-0.392124257
-5.378156198,-8.156549143,-6.566440606,-6.39041849,-0.691448566,5.625624865,11.99042504,11.82248295,29.43397149,7.078929227,29.97112837,10.2865662,17.65631383,5.802731292,6.719182521,-3.659122009,0.67127365,-5.254161459,-0.483370168
-5.134402819,-7.532127389,-5.375571169,-5.135179112,-1.213476702,6.059502567,11.71827029,12.23607461,30.19781524,6.806429883,29.79606926,12.20553827,17.22415225,6.486259401,8.093832131,-2.933144228,1.71386208,-4.75665123,-0.448609917
-4.040740088,-6.208829827,-3.546631511,-3.644372844,-1.95519757,6.040987495,10.40230119,11.29581297,30.56817579,6.70856788,30.47221189,16.1823701,17.70649763,7.669687215,5.234746702,-1.99254493,2.544131326,-4.575411943,-0.260165574
-3.101828414,-5.282111924,-2.290767243,-3.562446219,-2.616143629,5.650471367,8.755601799,9.616653574,30.20768889,6.641103891,31.39726265,20.0266868,19.24150659,8.840326909,-0.980469206,-1.622472933,2.660963686,-4.952398689,-0.064969415
-3.099717551,-5.459462187,-2.254941321,-5.094044331,-2.867818386,5.251824528,7.895466381,8.358805253,29.35737407,6.423959822,31.85317538,21.24449732,21.02481585,9.390691536,-7.518954228,-2.252235832,2.07061323,-5.484080056,-0.082356096
-3.924738843,-6.470557423,-3.069531608,-6.818355376,-2.467716023,5.17233895,8.406836562,8.489189844,28.73333419,6.160119425,31.41606733,18.76938653,21.74168626,8.885810595,-11.15022218,-3.609361997,1.218059241,-5.550383429,-0.404883365
-4.651659495,-7.273451359,-3.673008261,-6.810937948,-1.372618889,5.411482906,9.839102065,10.17481441,29.0504877,6.335172548,30.16827324,13.83486426,20.47403763,7.263833507,-10.39728766,-4.8538394,0.603015899,-4.884428007,-0.850466459
-4.302987551,-6.877535744,-3.134205094,-4.167369637,0.198303869,5.651367293,11.07664499,12.71889135,30.49964868,7.52298375,28.63036409,9.291783244,17.44852579,4.92049765,-6.236493619,-5.126446598,0.41352141,-3.785511885,-1.006940431
-2.661678049,-5.106660274,-1.331239594,0.262559299,1.806906367,5.558598539,11.25615526,15.03267487,32.54818825,9.853807704,27.47420204,7.782182291,14.04076697,2.626053698,-1.240523399,-4.129223957,0.464811354,-2.821530636,-0.486165696
-0.462926666,-2.702999163,1.002675072,4.463002914,2.957634015,5.094035486,10.43598222,16.25901561,34.21113457,12.65908057,27.16887745,10.02450346,11.96454757,1.243759883,2.109997621,-2.320022531,0.450198603,-2.320802079,0.762854254
1.174131523,-0.735950202,2.844327332,6.657883404,3.315430247,4.542413138,9.46630775,16.12474453,34.62139615,14.65962603,27.73696602,14.40264347,12.18546802,1.321589722,2.791416283,-0.583036952,0.25046793,-2.118718706,2.314566259
1.5834834,0.161115363,3.582199782,6.442092376,2.869240541,4.241350467,9.227110209,14.88605879,33.53936507,14.69632477,28.75530891,18.11971688,14.33077434,2.766230867,1.498084047,0.377761534,0.029142173,-1.773104029,3.444622001
0.970950164,0.112791522,3.329011128,4.832399482,1.946002394,4.274412323,9.937077237,13.05746764,31.4965271,12.56206368,29.61975356,19.07038623,17.01917246,4.841239043,-0.161096394,0.478496495,0.057092405,-1.034500359,3.548678211
0.111963676,-0.309989807,2.670713917,3.309300697,1.055562858,4.423943543,11.11967795,11.19762864,29.50486097,9.326385153,29.93835299,17.12090228,18.85702681,6.565240305,-0.827630757,0.22192094,0.4513786,-0.137181623,2.533034471
-0.361205973,-0.684487116,2.122474784,2.670198148,0.638001298,4.425194348,12.17860444,9.840691294,28.51677685,6.825180959,29.80905874,13.98062271,19.36031963,7.299706717,-0.118187452,0.243730309,1.067021662,0.352435874,0.898939301
-0.458523808,-1.066385534,1.748804806,2.574028034,0.839154168,4.265065974,12.98387351,9.442490642,28.93937828,6.559168053,29.77346424,11.891671,19.14243877,7.132165538,1.452824661,0.797890234,1.619511011,-0.002110043,-0.555885889
-0.7239456,-1.799643401,1.217081253,2.042332971,1.429530426,4.214669317,13.90303226,10.20091272,30.44686966,8.70269973,30.43480899,12.15603521,19.28584537,6.763131957,3.114283429,1.567329289,1.906256666,-1.132166696,-1.223009892
-1.670420182,-3.04033136,0.178723818,0.421704165,1.913315823,4.536332295,15.27446434,11.81741907,32.15879298,11.91190407,31.97265378,14.50297097,20.4292039,6.955345152,4.468597608,1.927140972,1.92858728,-2.485620078,-1.024645908
-3.283410379,-4.474911349,-1.374948742,-1.998381645,1.781068709,5.133030937,16.86813142,13.45714118,33.06930312,14.1104323,33.89542062,17.56698949,22.27346862,7.941397665,5.650371512,1.44677229,1.8333176,-3.410871299,-0.386405942
-5.016574955,-5.51078706,-3.072719022,-4.180732369,0.784697102,5.498804063,17.89658481,14.09776342,32.51099323,13.76717428,35.23717914,19.92429911,23.83249652,9.23205886,6.972474521,0.248979176,1.762592254,-3.579144401,0.11236459
-6.246703313,-5.767921234,-4.43978719,-5.143242574,-0.907065912,5.078910613,17.61529746,13.14031241,30.4446137,10.83698827,35.1005918,20.85376418,24.16046122,9.967772856,8.414030213,-1.039751975,1.758898676,-3.127142716,0.139256059
-6.761307188,-5.417253395,-5.22935438,-4.697001633,-2.76366571,3.769502927,15.98271903,10.86309041,27.45942664,6.762909826,33.19381994,20.38603643,22.9640692,9.540933987,9.402317738,-1.708970395,1.781865356,-2.467988977,-0.222407554
-6.856058759,-5.044878107,-5.525813331,-3.531864183,-4.142899019,2.121786856,13.77112927,8.33010731,24.49818489,3.573286633,30.00402878,18.86376537,20.68186821,8.018648507,9.098288955,-1.451236048,1.767885769,-1.986316032,-0.621519397
-6.988508168,-5.143824261,-5.551794655,-2.600030578,-4.609448345,1.030663448,12.00467606,6.747737512,22.4351487,2.695819632,26.50582634,16.57556283,18.08820135,6.069511083,7.007028175,-0.571966542,1.639464472,-1.871683031,-0.748415474
-7.323334166,-5.668375001,-5.371220692,-2.305422134,-4.144137102,1.113547577,11.20285871,6.703975358,21.69611396,4.247114252,23.62603077,13.80166132,15.82835357,4.490975545,3.478810267,0.222256779,1.265416488,-2.154142468,-0.554695359
-7.574761891,-6.037894468,-4.766182409,-2.155559589,-3.118487874,2.258325502,11.07475579,7.846439281,22.09352577,7.177239316,21.83021383,11.09291478,14.23935292,3.720230308,-0.283745921,0.308179926,0.468442593,-2.798640657,-0.239286811
-7.266430885,-5.596177142,-3.412539326,-1.169923472,-2.046795129,3.699807971,10.89575053,9.231291255,22.9569801,10.05780156,21.06217125,9.313601807,13.46210826,3.671480411,-2.780811127,-0.429522283,-0.850111176,-3.696971,-0.055644603
-6.161677985,-4.152228202,-1.220726711,1.253321905,-1.27096502,4.565878845,10.19133732,10.05547359,23.49966314,11.92387687,20.98057466,9.197505965,13.56684658,3.942261313,-3.031287652,-1.52166347,-2.537935416,-4.568101193,-0.118263659
-4.490994892,-2.16994574,1.441383884,4.683443284,-0.784580055,4.466751402,9.106335404,10.19420347,23.23541216,12.64480934,21.2376755,10.69363553,14.46577255,4.147373222,-1.163807427,-2.237250475,-4.148339322,-4.942716833,-0.349871202
-2.805637111,-0.471594812,3.846696838,7.757510526,-0.31601623,3.68600207,8.16278781,10.14418885,22.22093012,12.69936758,21.58348851,12.70746776,15.70192852,4.103941251,1.58810427,-2.087689999,-5.139420612,-4.372510186,-0.572793463
-1.612224069,0.29275902,5.286618722,9.029549011,0.386591145,2.870154946,7.687760028,10.46888408,20.98435421,12.64238681,21.79432565,13.62644878,16.44094409,3.794322481,3.518051006,-1.170690799,-5.220443244,-2.77925902,-0.641101573
-1.100551981,0.002997854,5.470792639,7.993542183,1.27469121,2.510745923,7.482709829,11.24104603,20.18429839,12.69206303,21.60743917,12.38897911,15.87636157,3.252988795,3.377420718,-0.114958288,-4.579890696,-0.658861587,-0.514592103
-1.150573551,-0.971822695,4.670726286,5.535067987,1.939933309,2.641418515,7.050362337,11.95462208,20.21729023,12.69328219,20.82518583,9.337147233,13.85668422,2.548792633,1.100289401,0.34797841,-3.7790509,1.100131488,-0.257804031
-1.540601312,-2.105811823,3.515786633,3.438303363,1.846428841,2.94891404,6.148209098,11.96675301,21.03238323,12.4012489,19.55295738,6.153949468,11.22477401,1.86570676,-2.083499482,-0.097392923,-3.356172778,1.732507466,-0.009730608
-2.127978378,-3.038411317,2.597512182,3.239967869,0.715157824,3.136587838,5.119985829,11.08539474,22.26919933,11.81637376,18.34413225,4.828939218,9.468628036,1.522276365,-4.240594044,-1.098183373,-3.444187393,1.095033967,0.0439759
-2.85460371,-3.666055557,2.160048872,5.204460901,-1.204780712,3.194584985,4.663451012,9.805775419,23.59237866,11.30529577,18.0315665,6.335217486,9.795058706,1.802997467,-3.7606728,-1.839094633,-3.719514209,-0.239605342,-0.282248086
-3.634678479,-4.026402079,2.06750199,8.133885133,-3.188440238,3.358405432,5.224408297,8.995205052,24.93104737,11.41661506,19.24947973,9.948530464,12.2504365,2.68673823,-0.306859872,-1.592670392,-3.731448994,-1.390954113,-1.076097003
-4.298243494,-4.165715524,2.021365213,10.14838385,-4.412795725,3.835560687,6.562282142,9.268960979,26.39409203,12.50450193,21.92094525,13.68967515,15.57064258,3.730689164,4.819053218,-0.254403024,-3.330154016,-1.787303086,-2.209127446
-4.684843871,-4.134787048,1.825062003,9.887007951,-4.438166995,4.574102821,7.881700193,10.52779022,27.90343752,14.38939937,25.0806443,15.56810249,17.94316852,4.297439145,9.15169036,1.508352862,-2.812581081,-1.529442405,-3.301460053
-4.801316134,-4.077295909,1.487837646,7.291063978,-3.487296662,5.279508763,8.413231828,11.97959528,28.86699731,16.26997556,27.22594922,14.76118171,18.17544866,4.020142565,10.22418507,2.621083844,-2.645028119,-1.241193298,-3.859553244
-4.867838677,-4.253866296,1.116915159,3.459155898,-2.334744096,5.644297841,7.932652952,12.59633275,28.25472867,16.97769725,27.05357691,11.97169141,16.43639678,3.142550609,6.88330048,2.264687204,-3.001743023,-1.550485976,-3.55356101
-5.172415538,-4.906300659,0.730122921,-0.238587434,-1.865504226,5.570362837,6.790949888,11.67040356,25.16248021,15.49103984,24.17554639,8.838842131,14.04978929,2.409506414,0.072065068,0.411432662,-3.542469669,-2.618177881,-2.459512882
-5.842035933,-6.043024866,0.182280582,-3.063724511,-2.57212392,5.19593439,5.494310257,9.130753517,19.53285775,11.4730748,19.3962103,6.921894966,12.53083414,2.531273607,-7.406040893,-2.115139847,-3.65861322,-4.057197806,-1.069193952
-6.730720434,-7.337355964,-0.707636219,-5.146602691,-4.294477828,4.736059932,4.276069601,5.503726065,12.48675774,5.544303635,14.37679194,6.960672936,12.60645754,3.621900492,-12.12723401,-4.093724109,-3.001009791,-5.244288707,-0.017888019
-7.525066833,-8.258434861,-1.924152141,-6.952151507,-6.345520166,4.310596204,3.064920021,1.639179575,5.923701023,-0.893092736,10.8570908,8.779536686,13.91743732,5.078037465,-11.71748172,-4.575552192,-1.827963307,-5.721989441,0.302880519
-7.969503338,-8.361352746,-3.120941281,-8.516803234,-7.921015206,3.917136134,1.826712738,-1.603882106,1.566771818,-6.228115418,9.841955225,11.68406205,15.52404241,6.029406712,-6.08191605,-3.350122503,-0.838591073,-5.371337995,-0.027019471
-8.008036611,-7.526464845,-3.72991182,-9.183952849,-8.525603467,3.541033229,0.865620154,-3.599130568,0.070109616,-9.319703617,11.16973211,14.92674356,16.71194363,6.017623644,2.494916123,-0.94801297,-0.594811669,-4.291784638,-0.556997358
-7.730126862,-5.983363206,-3.277878647,-8.127386967,-8.165231068,3.253414853,0.703232263,-4.109309007,0.801664646,-9.911292693,13.67332911,17.93979213,17.4245102,5.351291052,10.46635749,1.755980612,-1.011238655,-2.599470043,-0.816023589
-7.206765446,-4.137180232,-1.709608017,-5.246543856,-7.231710382,3.170453663,1.588112186,-3.357734863,2.428017111,-8.572238692,15.83902152,20.34523653,18.03694527,4.837751351,14.76398669,4.032167416,-1.367109218,-0.393277584,-0.642951264
-6.411580674,-2.364021863,0.506081809,-1.636887886,-6.208213712,3.305892677,3.103397895,-1.968602376,3.829223084,-6.264343278,16.61501538,21.93056603,18.77555285,5.107427976,14.21746595,5.567243095,-0.868524793,2.082153121,-0.251375554
-5.327605767,-0.926991679,2.571746214,0.874312618,-5.414933001,3.480003796,4.316621901,-0.731412307,4.647015488,-3.863511327,15.94082669,22.68901032,19.36519581,6.090509812,9.918032264,6.416522353,0.683712546,4.299310918,-0.003239931
-4.130391137,-0.014454605,3.745548555,0.886880994,-4.942062678,3.413248955,4.441735818,-0.248060337,5.113907792,-1.942406131,14.70476811,22.82597195,19.2394421,7.078787482,4.421773543,6.774962472,2.676631227,5.583190976,-0.096718038
-3.223363792,0.224601022,3.686274843,-1.567050018,-4.753258008,2.955757664,3.482956335,-0.647861661,5.437786416,-0.859445227,14.13805579,22.58877511,18.11099559,7.309561038,0.339200182,6.789809928,4.115345909,5.516406733,-0.425075504
-3.013379915,-0.251242055,2.570961365,-4.972010568,-4.819065129,2.251907025,2.27990375,-1.566672095,5.383367923,-0.925062345,14.97701477,21.96761813,16.35390228,6.566814884,-0.87535264,6.531312569,4.364649812,4.312074903,-0.699542219
-3.568155084,-1.250692929,0.950297634,-7.333705425,-5.147681023,1.666675649,1.854377422,-2.428056927,4.467943716,-2.373487878,16.888599,20.54618964,14.79624899,5.288848535,0.638752842,6.064190992,3.607030123,2.797191358,-0.700399192
-4.456124516,-2.325731896,-0.540833426,-7.52850863,-5.701162198,1.498712826,2.564027706,-2.844485397,2.567286357,-5.10519453,18.53829688,17.76700294,14.03556526,4.108038868,3.529617159,5.485686703,2.65859905,1.927892019,-0.426392333
-4.962567222,-2.951482999,-1.445934213,-6.008431007,-6.308544513,1.703792258,3.759801916,-2.859951105,0.281114671,-8.468146836,18.3162723,13.54550241,13.82918996,3.248688971,6.041665362,4.871869097,2.314481841,2.155495834,-0.027123461
-4.56920125,-2.824859237,-1.607959226,-4.355781447,-6.702431664,1.869951606,4.240452351,-2.87547929,-1.417298639,-11.41252792,15.32635362,8.773002788,13.10190339,2.334941056,6.767040606,4.206194451,2.76927017,3.130527807,0.387320777
-3.338865939,-2.054916909,-1.139927808,-4.051900234,-6.693946717,1.494425146,3.142218756,-3.341521023,-2.037000918,-13.068961,10.04375817,5.176612608,10.65159628,0.797231542,5.066511069,3.40351929,3.565225596,3.995318789,0.855026628
-1.8913004,-1.077034114,-0.312291098,-5.400099955,-6.355668132,0.367603905,0.560188392,-4.46137284,-2.141776204,-13.37476631,4.211805243,4.413890251,6.086976899,-1.47480137,1.161238715,2.436323084,4.053969204,4.042549746,1.472360584
-0.974576533,-0.35520739,0.56372974,-7.385247276,-6.034775802,-1.224596541,-2.547015206,-6.096689665,-2.969476111,-13.19411179,-0.003231692,6.911345477,0.328028219,-3.829300537,-3.986404395,1.422580523,3.927434553,3.197782179,2.189233314
-0.967513924,-0.136647151,1.21036242,-8.508257395,-6.128323064,-2.633576297,-5.01058242,-7.864577634,-5.241147191,-13.67652781,-1.122101094,11.29818683,-4.70929878,-5.21909764,-8.943115066,0.515562757,3.349733427,1.906919538,2.698148294
-1.705131748,-0.489121395,1.407160423,-7.902534574,-6.747859085,-3.218803257,-6.086785931,-9.265473145,-8.134780494,-15.20765022,0.920664372,14.99455816,-7.066678049,-4.985533775,-12.23957575,-0.391038751,2.610834211,0.504397319,2.555905643
-2.744921716,-1.584257553,0.980503681,-5.881785662,-7.526026998,-2.69507882,-5.61491253,-9.725407652,-9.45397414,-16.74684002,4.850747042,15.72718646,-5.745437378,-3.422627544,-12.92211923,-1.893038194,1.67104262,-1.388911733,1.471540819
-3.817251126,-3.916811709,-0.212542604,-3.567164533,-7.75540881,-1.237790248,-3.736798296,-8.618713119,-7.114534136,-16.20124181,8.861247091,13.0277412,-1.169670365,-1.626793612,-11.00419829,-4.924733611,0.070603002,-4.843304129,-0.462929011
-5.051801286,-8.138083707,-2.270708259,-1.96452836,-6.822163712,0.677191401,-0.606902554,-5.448067021,-0.885474747,-11.77172974,11.65398656,8.683589325,5.105352797,-0.702086133,-7.51319711,-10.14289712,-2.654262907,-10.83943349,-2.788714444
-6.777370148,-14.49098433,-5.180687387,-1.238231127,-4.663748056,2.543170121,3.555967904,-0.239951417,7.100889536,-3.420215851,13.10038743,5.769344462,11.20115131,-0.919972271,-3.985966024,-17.16674077,-6.385516673,-19.22887857,-4.935729909
-9.078127143,-22.23297819,-8.711677466,-0.70372463,-1.923617746,4.014879021,8.165661137,6.066522531,13.71199942,6.626581563,14.15989563,6.840278699,15.75653454,-1.491381981,-1.623045867,-24.25228607,-10.20217413,-28.24204107,-6.519570874
-11.51875392,-29.5705341,-12.34648543,0.528684639,0.341721491,4.945942599,12.15076227,11.63589907,17.15426348,14.85079584,16.14061787,12.43194103,18.38194166,-1.144980459,-0.608127537,-28.82094141,-12.79062357,-35.05213469,-7.461736643
-13.31931577,-34.33408545,-15.3473173,2.794898257,1.243462605,5.325884829,14.34067801,14.39728368,18.42060769,18.38759009,19.75714327,20.78455602,19.5780857,0.911956543,-0.067676789,-28.71716519,-13.23600284,-37.18144764,-7.874950097
-13.8758405,-35.07683381,-16.99735159,5.553687652,0.560088232,5.214046532,14.17924329,13.13246875,20.49966723,16.69637578,24.53603694,28.87748089,20.25225286,4.360303328,1.25147778,-23.4973229,-11.61144697,-33.90272825,-7.851088471
-13.21364959,-31.90048042,-16.93236799,7.670741605,-1.169683593,4.713333293,12.18752317,8.346924189,25.74462026,11.83013856,28.91245483,34.02968059,21.1264005,7.917840938,4.012778214,-14.89608962,-8.915562491,-26.71745308,-7.352142373
-11.99506146,-26.42143902,-15.36630751,8.053856373,-3.014383686,3.956276326,9.705763304,2.259849278,33.41167648,7.09664224,30.98145809,35.06699973,22.33713237,10.14246669,7.692783748,-6.061854448,-6.402519887,-18.56135832,-6.290891315
-11.05693535,-20.85154506,-13.02649493,6.218742827,-4.223628731,3.067441537,8.018363461,-2.256196397,39.47339975,4.993970972,29.51466268,32.48868895,23.41192797,10.30711754,10.79468206,0.057471485,-4.80372284,-12.2141433,-4.709282842
-10.8318651,-16.77988254,-10.77943166,2.508959657,-4.628728352,2.116870737,7.513553334,-3.243851754,39.1598807,5.783064107,24.69930305,27.79483629,23.6199687,8.759848353,11.76416749,2.205826597,-3.997021438,-8.905478657,-2.878551105
-11.09629891,-14.45019725,-9.151594626,-2.049811724,-4.630532644,1.11779279,7.547169962,-0.776756535,30.49934778,7.595651159,18.18004539,22.60873774,22.50181421,6.59039402,10.01424688,1.263206326,-3.312120347,-7.961499026,-1.220680809
-11.2212058,-12.97044291,-8.062206755,-6.12535077,-4.829895042,0.091764726,7.116818268,3.12040386,16.17358615,7.91181325,12.33561563,18.15583041,20.26538164,4.906391237,6.381903852,-0.597989186,-2.178815527,-7.63409622,-0.106644439
-10.7038168,-11.23075907,-6.973167324,-8.540539905,-5.58908512,-0.851323344,5.778028613,5.738645713,2.136064554,5.337988785,9.137088553,15.20687997,17.78085818,4.229443703,2.708795825,-1.433156851,-0.605564329,-6.484450669,0.318052551
-9.556976226,-8.830068534,-5.375521973,-8.710061912,-6.824524068,-1.510301618,4.032871267,5.344381505,-6.133874486,0.489760033,9.190603368,14.18884214,16.12906234,4.353346849,0.799594112,-0.69023678,0.839380007,-4.36959916,0.168152803
-8.275139065,-6.357426199,-3.271659629,-6.919836272,-8.134124974,-1.706247438,2.875705924,2.168414139,-7.03256309,-4.526388095,11.4977717,15.13702121,15.94854209,4.6477601,1.393045751,0.711021443,1.46852343,-2.403381253,-0.279365362
-7.444461059,-4.882352447,-1.284282174,-4.282360239,-9.117711487,-1.442397375,2.901518646,-1.895855405,-3.411808091,-7.562812937,14.07670816,17.47364578,16.99521868,4.52340267,3.756598253,1.323542398,0.97023679,-1.987529415,-0.723312297
-7.325126235,-5.083176495,-0.273469608,-2.278560094,-9.636188446,-0.974226207,3.748263112,-4.646443497,-0.009754895,-7.769094413,15.08547649,19.92131748,18.23159804,3.755518969,6.132795441,0.37891838,-0.388254718,-3.633968931,-0.934881692
-7.710919248,-6.665828278,-0.704250406,-2.026742705,-9.838276802,-0.702900763,4.346369799,-5.05181163,0.206972901,-5.956005111,13.78855299,20.87004172,18.43253423,2.534904106,6.775841105,-1.622517119,-1.933550596,-6.413241898,-0.801393418
-8.117391682,-8.467744567,-2.21208502,-3.660162781,-9.976134433,-0.940790146,3.755531535,-3.870912878,-2.017037898,-3.857442976,10.81430326,19.17315129,16.94395741,1.306842342,4.995753042,-3.299124529,-2.953468139,-8.412781424,-0.347170348
-8.099365245,-9.132933321,-3.699184745,-6.220250774,-10.1781324,-1.707477731,1.884462464,-3.02937094,-3.357476871,-2.899923556,7.611087905,14.9272101,14.11009727,0.538710203,1.626379369,-3.38486834,-3.004998953,-7.896422391,0.264015897
-7.450930937,-7.87171171,-3.932781629,-8.18942342,-10.34939472,-2.702752163,-0.481777795,-4.204767514,-1.013082939,-3.337146853,5.515228111,9.658983882,11.09122682,0.524989459,-1.366473497,-1.570517094,-2.027589691,-4.392730044,0.783897742
-6.199062033,-4.82532838,-2.267066174,-8.362693892,-10.25132909,-3.47596724,-2.319017586,-7.588327599,4.800516123,-4.262925492,5.048167864,5.653206031,9.189751644,1.275431788,-1.967928355,1.3809211,-0.288552256,0.996906198,1.015872546
-4.493109924,-0.881052752,0.974349857,-6.511705528,-9.678900637,-3.673230673,-3.100170125,-11.65293205,10.91770112,-4.382926651,5.831974479,4.720357577,9.111830783,2.501489539,0.674781998,4.228986654,1.74553598,6.251168016,0.973015526
-2.541986475,2.850344371,4.684350866,-3.435640247,-8.606457501,-3.204532816,-3.044890593,-14.07967684,13.65957646,-2.954861789,7.041580029,7.126670153,10.60697988,3.710711438,5.606198423,6.044537666,3.5553219,9.597158045,0.929903195
-0.638386999,5.533310033,7.580768776,-0.423564108,-7.22371829,-2.252138086,-2.769553841,-13.23536188,11.58016728,-0.276938119,7.963647736,11.37253035,12.65969925,4.395274356,10.43003686,6.623826338,4.726190457,10.44092692,1.280978723
0.828589928,6.84015033,8.84451487,1.461572176,-5.869936161,-1.159314263,-2.736737341,-9.244927866,6.350592232,2.53123079,8.256614362,15.00574326,14.06132814,4.247670393,12.58784495,6.336426661,5.095460174,9.505595166,2.266956937
1.484002856,6.909787214,8.429321352,1.816993113,-4.922941685,-0.294418126,-3.004203912,-3.977102179,1.243029146,4.240632888,7.842771491,16.0083462,14.00136986,3.296678706,10.86770342,5.672579479,4.816003306,8.170805194,3.766554095
1.182585822,6.175266023,6.939205588,0.880403166,-4.689693991,0.049340102,-3.415760967,0.035902923,-1.376897608,4.232374675,6.697256144,13.9229547,12.37693608,1.882149233,6.2250465,4.920969325,4.263947256,7.522231452,5.334764638
0.168330156,5.189178454,5.236275388,-0.763792963,-5.312545405,-0.27651442,-3.934053673,1.053778615,-1.482998114,2.799154736,4.837455186,10.03509331,9.734490387,0.477513842,1.328413766,4.190608083,3.813509039,7.759376253,6.483867238
-0.987798432,4.475332388,4.042286701,-2.455759285,-6.696836079,-1.214688623,-4.713351921,-0.944169032,-0.756231141,0.903773631,2.542685344,6.51197957,6.957370841,-0.538425554,-0.987813844,3.627659472,3.62128302,8.303043847,6.993884496
-1.680366726,4.378042363,3.710778463,-3.582722725,-8.487289783,-2.472189274,-5.825198954,-4.395660729,-0.69008146,-0.403340387,0.521411432,5.046918463,4.886108377,-1.035080712,0.554912794,3.506921199,3.581846086,8.428759127,6.996597059
-1.609644686,4.921159369,4.191712541,-3.661571653,-10.13616272,-3.584864546,-6.950815573,-7.20373377,-1.202262783,-0.542938509,-0.290542191,5.860246581,4.019640073,-1.143300884,4.881469583,4.037934947,3.488627902,7.899178103,6.761707853
-0.931298224,5.762396817,5.120772648,-2.525233106,-11.07708284,-4.104727905,-7.431698715,-7.986871157,-0.912141446,0.357300008,0.695325643,7.670487903,4.375111616,-1.152251806,9.224664055,5.04893937,3.254225565,7.116321368,6.379777398
-0.113005251,6.327946656,5.974234762,-0.554042333,-10.95022922,-3.833957695,-6.733155458,-6.750267702,1.309262126,1.629913468,3.165567835,8.623734059,5.534765233,-1.364610707,10.82019796,5.884806065,2.978878424,6.707865222,5.645425491
0.386530324,6.103978959,6.267383131,1.311376313,-9.768178973,-2.949398938,-4.943495989,-4.63314999,5.012297396,2.489030134,5.869877614,7.555721401,6.867164261,-1.973489294,8.516386981,5.705073152,2.785319989,6.900424909,4.27837696
0.378577137,4.926301981,5.761795123,1.974888437,-7.921430966,-1.901406288,-2.831099314,-3.010891775,8.290602293,2.446078397,7.271797863,4.755850175,7.844811407,-2.986709459,3.265478457,4.018744101,2.565288621,7.193998512,2.305949863
-0.024081167,3.07327177,4.59058634,0.859099742,-6.005242555,-1.127431942,-1.337639994,-2.612940473,9.248303733,1.508030505,6.50945085,1.740188804,8.308026737,-4.206630203,-2.726136151,1.054232379,1.90200197,6.623061781,0.24673818
-0.582976038,1.084004463,3.195606513,-1.629020546,-4.55371874,-0.774966685,-0.8911587,-3.218819835,7.529057824,0.100847053,3.985508456,0.20082162,8.515743583,-5.282197888,-7.475512426,-2.342212962,0.313002526,4.44511194,-1.132063831
-1.14351485,-0.581820207,2.062756832,-4.277896887,-3.821747916,-0.641755035,-1.113384598,-4.02647307,4.606857356,-1.183754754,1.121053375,0.844625854,8.928568638,-5.846267692,-10.24945787,-5.223730664,-2.32379715,0.765296651,-1.348742126
-1.709831456,-1.805139786,1.399333577,-5.867530561,-3.723749931,-0.38300007,-1.180498232,-4.315867346,2.637121518,-1.853418736,-0.588636003,2.900800069,9.845295037,-5.704834446,-11.51435224,-7.090996773,-5.502824634,-3.370668284,-0.611539691
-2.354720884,-2.805757526,0.986367949,-6.017078503,-3.944224568,0.176096142,-0.541617181,-3.894329463,2.871855272,-1.670741196,-0.550426369,4.619508794,11.13410588,-4.980165514,-12.06519485,-8.069480577,-8.253529509,-6.519464064,0.270355175
-3.074819683,-3.887845991,0.35084343,-5.396962035,-4.141687206,0.873224599,0.606099582,-3.067834789,4.916571323,-0.678715926,0.613602014,4.416235813,12.25423405,-4.095065094,-12.18370551,-8.623100122,-9.683630905,-7.678683229,0.450123159
-3.727617056,-5.131367518,-0.829691499,-5.085890489,-4.129263949,1.323418044,1.472413023,-2.287758042,7.286903889,0.848379403,1.610840801,1.893949673,12.56632709,-3.564685717,-11.52982064,-9.084760372,-9.532619105,-6.869599163,-0.338980123
-4.095335672,-6.267291396,-2.381622572,-5.568931801,-3.944230207,1.222074461,1.304807154,-1.83736164,8.608843875,2.470499171,1.436523971,-1.919267226,11.72342191,-3.697446881,-9.756833648,-9.408521706,-8.318213703,-5.082256353,-1.603384021
-4.008670606,-6.835803408,-3.637254312,-6.229166255,-3.786962243,0.589772766,-0.04629867,-1.796307993,8.39179031,3.65867787,0.025488582,-5.233468993,9.880575486,-4.393764496,-7.192322369,-9.327863122,-6.948334876,-3.630116469,-2.499727621
-3.430830106,-6.5166079,-3.835117728,-5.828270981,-3.875967555,-0.237267492,-2.071363582,-2.205772064,6.879061476,3.921679463,-1.83577621,-6.581329816,7.601816706,-5.186874914,-4.896063022,-8.739800344,-6.081089459,-3.352047863,-2.509406526
-2.461726387,-5.395384318,-2.663741142,-3.644337228,-4.301297297,-0.855792932,-4.026942147,-3.158545153,4.418185359,3.000419282,-3.173785244,-5.607534602,5.561498161,-5.511871941,-3.993119103,-7.943584141,-5.716234422,-4.185263274,-1.830833112
-1.298655038,-3.977312105,-0.558348014,-0.320146252,-4.954718253,-1.075364711,-5.412511699,-4.643662742,1.176559587,1.069340964,-3.490983199,-3.106330841,4.257056904,-5.032913157,-4.848395854,-7.504358348,-5.322655902,-5.362382093,-1.175930978
-0.203899482,-2.934544037,1.487199055,2.371643379,-5.575951122,-1.008690303,-6.094235006,-6.279298646,-2.478239984,-1.186841252,-2.93037515,-0.387417691,3.88812488,-3.825046009,-6.802327759,-7.852224106,-4.382680295,-6.05269002,-1.152745848
0.522400987,-2.748450859,2.493128386,2.785246406,-5.893785312,-0.922108138,-6.069930153,-7.267962031,-5.462801298,-2.739588983,-1.916490605,1.530508593,4.390953496,-2.318742431,-8.696030059,-8.961788367,-2.903468766,-5.972889707,-1.757373859
0.612560561,-3.462573956,2.078266064,0.741206749,-5.784039539,-0.996620699,-5.2372945,-6.779427759,-6.155349702,-2.626363682,-0.685767401,2.371495026,5.509038434,-1.076979859,-9.724191711,-10.3828914,-1.475647783,-5.536446616,-2.397084859
-0.033624873,-4.676903529,0.676607689,-2.146738731,-5.346447387,-1.207897798,-3.497892971,-4.582049123,-3.477087224,-0.439976228,0.842278392,2.501946032,6.822780107,-0.55829124,-9.885424689,-11.58341729,-0.827099339,-5.456200156,-2.411030391
-1.215999895,-5.763275561,-0.737229443,-3.507947582,-4.842430007,-1.407486222,-1.129094721,-1.432989754,1.90639809,3.367712455,2.768492488,2.484051812,7.789407544,-0.975282066,-9.689769073,-12.2998904,-1.229620457,-6.115277095,-1.636001511
-2.430132767,-6.168718841,-1.2136124,-1.888515515,-4.522790674,-1.499141609,1.013434941,1.188147057,7.443900968,7.585663301,4.832961017,2.670853178,7.9039085,-2.253227894,-9.470726634,-12.60463692,-2.238471006,-7.191041806,-0.538630105
-3.067923063,-5.654661454,-0.324536988,2.200830176,-4.455372791,-1.525935845,1.841717599,1.95671084,10.09834513,10.76848532,6.387675598,3.10368293,6.99205866,-4.038061196,-9.00052805,-12.66929336,-2.9826737,-7.831912875,0.182792799
-2.749156411,-4.378794289,1.67677883,6.668770201,-4.474805206,-1.582487003,0.820826257,0.637409237,8.468295549,11.95852762,6.841087239,3.69012559,5.463948363,-5.740609866,-7.793235079,-12.48147066,-2.788790936,-7.27598663,0.170086527
-1.577908811,-2.80783798,4.059303778,9.362888858,-4.298262979,-1.646060203,-1.407316669,-1.612481231,4.024919875,11.22202435,6.235992393,4.440920691,4.276410604,-6.668412401,-5.786961723,-11.80178991,-1.659502451,-5.459728084,-0.33998754
-0.125712157,-1.510660839,6.002580072,9.557720037,-3.731042822,-1.510924952,-3.17682082,-2.867643852,0.350586028,9.66580524,5.435921687,5.554036924,4.498140305,-6.283561501,-3.677560243,-10.40872518,-0.244175713,-3.149846859,-0.775627225
0.887096152,-0.914103515,6.946271536,8.297866712,-2.814199082,-0.924445265,-2.791078676,-1.630342761,0.746704202,8.859734653,5.660979418,7.294278411,6.668737469,-4.509200723,-2.455787617,-8.394597056,0.666018695,-1.467312064,-0.749672089
1.023607635,-1.117125828,6.767249317,7.402294427,-1.80576389,0.165170516,0.27672619,2.18651047,5.887204764,9.933393902,7.631575026,9.771028673,10.35993002,-1.886935112,-2.462766191,-6.214854041,0.725132014,-1.123968761,-0.370917622
0.390378013,-1.849339956,5.767482694,7.971405767,-1.013887093,1.461076532,4.862308841,7.144550989,13.24874585,12.84584857,10.93017906,12.76038615,14.28103083,0.596389727,-2.831276913,-4.415529995,0.259648897,-1.924455859,-0.084771437
-0.453563053,-2.610783891,4.517525483,9.570023503,-0.615530495,2.422307329,8.713988894,11.09772259,18.76016454,16.2840571,14.08508894,15.66675402,16.93074764,1.99901784,-1.966591112,-3.265859995,-0.016633914,-2.911478942,-0.211613271
-0.8760345,-2.93979284,3.612446149,10.66126732,-0.601104915,2.576403254,9.851490351,12.3903772,19.47781085,18.31486484,15.38440612,17.65247155,17.41910512,1.968243338,1.150972143,-2.62050419,0.439459114,-3.063031061,-0.617851868
-0.576515119,-2.666398784,3.413018185,9.863913716,-0.873316687,1.825176587,7.755026693,10.68143495,15.38203803,17.46695873,13.91223098,17.9230901,15.94980224,0.976243468,5.859481922,-2.12993716,1.600697613,-2.030736349,-0.823000139
0.257882641,-1.989255946,3.880856174,7.013973613,-1.390381777,0.52507523,3.595928308,6.960034514,9.121436064,13.62507338,10.13979221,16.10960796,13.67041881,0.052818386,9.913893382,-1.593582865,2.915089665,-0.364484373,-0.442648043
1.136435634,-1.305954155,4.619619556,3.260182167,-2.202036732,-0.712286312,-0.576115902,2.878281545,4.07802316,8.187570634,5.70347831,12.60325888,12.0077966,0.15685182,10.89998568,-1.113029489,3.733446357,0.949353931,0.439601238
1.639770239,-0.891062964,5.145490646,0.23846243,-3.326320656,-1.357323463,-3.061616859,-0.092913158,2.265301535,3.361836467,2.529018735,8.620109674,11.91354764,1.588363333,7.982584051,-0.892803827,3.775085683,1.281084033,1.312360342
1.713550777,-0.642122307,5.250560048,-0.949067737,-4.576005196,-1.218071706,-3.333195289,-1.204319887,3.484754514,1.000711858,1.847471512,5.818207013,13.448308,3.821939698,2.64148624,-0.887981745,3.284916722,0.862826759,1.655496865
1.683288805,-0.094149428,5.211350585,-0.199843911,-5.521530794,-0.480261894,-2.031782234,-0.505144056,6.056478999,1.673833555,3.659850561,5.523913899,15.86927042,5.848938131,-2.233150195,-0.678810654,2.792807853,0.604030523,1.364053609
1.999034117,1.272417267,5.653870543,1.867911891,-5.687830024,0.442466684,-0.33576139,1.392345268,8.274750697,4.515668705,6.885274758,7.941477543,18.0743184,6.771477556,-4.252019394,0.23097412,2.691587356,1.358365052,0.804958081
2.902476917,3.623569914,7.11633433,4.519951643,-4.883286237,1.119962453,0.754820602,3.625633273,9.409330525,7.888292805,10.01913164,11.87284752,19.11077846,6.252388843,-3.021297616,1.902491849,2.968584368,3.224984802,0.473133794
4.245265534,6.553135253,9.594692072,7.272152942,-3.414113892,1.264204952,0.797299754,5.356344758,9.691348004,10.38101595,11.8866847,15.26331775,18.5229824,4.577663324,-0.13292859,3.707805097,3.280299576,5.447725236,0.576301371
5.566288489,9.230721225,12.41203413,9.816534924,-1.982827227,0.802401342,-0.10128188,6.015706201,9.633988556,11.4936356,12.10434207,16.36907773,16.46962324,2.385818623,2.244515067,4.649123092,3.279629581,6.997210321,0.93114807
6.356927886,10.83981746,14.54616128,11.77470113,-1.291878463,-0.111759781,-1.470634697,5.517180353,9.458183701,11.6248955,11.08024698,14.85356991,13.64189992,0.318243779,2.993367089,4.086693112,2.914214609,7.363028697,1.250021785
6.333513713,11.020139,15.21739131,12.6726494,-1.607418688,-1.135058813,-2.664368395,4.326180679,9.074431565,11.49681818,9.639909655,12.05550678,11.01942334,-1.188181422,2.622590734,2.311088166,2.455650697,6.90552809,1.520096206
5.558001718,10.02357426,14.33646718,12.23192692,-2.593124117,-1.840295367,-3.050517937,3.25034732,8.434042481,11.51119443,8.521888375,10.16023469,9.493415801,-1.934111666,2.46084378,0.44963832,2.248687366,6.478588047,2.081050258
4.36590859,8.500300045,12.50760592,10.67949883,-3.542379476,-1.898685522,-2.279867032,2.968939591,7.736900389,11.50461162,8.005589536,10.7554679,9.44881857,-1.932636637,3.291673249,-0.293927368,2.398872567,6.648037117,3.290558396
3.180696904,7.092224894,10.60738044,8.700450543,-3.849138553,-1.275570597,-0.57260717,3.558125212,7.223552914,11.00347089,7.831751088,13.72610329,10.50067433,-1.42079164,4.656747742,0.492579872,2.664459428,7.183106704,5.072959799
2.337561717,6.124363217,9.261089647,6.983007946,-3.384025097,-0.311904614,1.210446905,4.364441297,6.782166126,9.690993573,7.416920792,17.26050122,11.59768007,-0.865065623,5.39198452,2.141914303,2.649062993,7.278574401,6.793749183
1.995744067,5.570835948,8.579310836,5.721674664,-2.51809135,0.407479864,1.914111582,4.39163379,5.840424181,7.686026235,6.218962025,18.99227137,11.541612,-0.837714392,4.841261622,3.443288902,2.142460789,6.337274057,7.63584333
2.139294532,5.237042545,8.27926418,4.53702236,-1.802633858,0.365849874,0.76226923,2.997099075,3.754299547,5.451206461,4.046872908,17.51153656,9.68863831,-1.729482292,3.594660606,3.576250279,1.328100229,4.630646188,7.198038169
2.618136236,4.945567876,8.009167183,2.921987722,-1.562409254,-0.570762362,-2.057544519,0.426345663,0.408984692,3.475473147,1.156736915,13.22454646,6.405535454,-3.453814036,3.034334087,2.681620888,0.673552631,3.212294034,5.805137592
3.192344858,4.565606082,7.57605697,0.836923208,-1.702785568,-2.047727173,-5.358254523,-2.2192546,-3.503468243,2.025566113,-1.891215509,8.009933391,2.940173634,-5.393695958,4.048668395,1.606678235,0.57204238,3.074131261,4.241350037
3.585440662,3.922564735,6.929820909,-1.097704289,-1.847216831,-3.413096118,-7.585664247,-3.606789645,-6.824113039,1.130342552,-4.503496794,3.966521992,0.723935528,-6.712242262,6.047134414,1.059933627,1.011882922,4.211518397,3.117748519
3.573511056,2.771719449,6.017946817,-2.035922768,-1.665846592,-4.093886921,-7.749112658,-2.995939253,-8.65990107,0.709222842,-6.288601115,2.150880703,0.519955315,-6.864763451,7.195649623,0.92318493,1.546328284,5.419961887,2.421456571
3.106046688,0.965817411,4.744635625,-1.634093763,-1.12994451,-3.916446539,-6.03158021,-0.725710061,-8.950967902,0.639970226,-7.149867295,2.140711212,1.968794912,-5.949681244,5.770201913,0.347805842,1.612259375,5.104969329,1.653320153
2.394943982,-1.272116574,3.132978102,-0.439997882,-0.514257215,-3.170533743,-3.666368142,1.944062211,-8.451572718,0.689112115,-7.239819642,2.618460482,3.838032169,-4.614918427,1.567542871,-1.40926645,0.970420886,2.554579057,0.443318127
1.881218358,-3.237950211,1.533989987,0.44211657,-0.179624123,-2.394576099,-2.176962626,3.519955073,-8.17483285,0.453578896,-6.852953583,2.452117455,4.813368323,-3.564654368,-3.767059844,-4.116998401,-0.070378623,-1.31912128,-0.91386188
2.040608706,-4.008543269,0.609619786,0.192984726,-0.324141634,-2.04055493,-2.49824783,3.061441336,-8.742664965,-0.474827828,-6.322621602,1.47591028,4.308532386,-3.033894501,-7.769535823,-6.457356784,-0.83200195,-4.420602133,-1.528640723
3.102430474,-3.000037201,0.978337198,-1.041379627,-0.88023882,-2.234164697,-4.524758065,0.628489641,-10.08597496,-2.119416361,-5.928696488,0.488705747,2.774913923,-2.642002532,-8.741500963,-6.860180243,-0.731237175,-4.849529711,-0.605332711
4.850294262,-0.451579764,2.730116514,-2.202834304,-1.593506547,-2.75539495,-7.285661024,-2.797577937,-11.60883984,-3.807578524,-5.795581967,0.592829052,1.346546609,-1.746715203,-6.691432401,-4.683332824,0.311903281,-2.224708811,1.800885305
6.66132577,2.566908457,5.203674738,-2.103740897,-2.183350931,-3.211394275,-9.52825658,-5.807303002,-12.58884086,-4.329180078,-5.802243479,2.418884555,1.097518505,-0.021567057,-3.017230091,-0.80526542,1.827750425,2.033851556,4.62777376
7.803401517,4.716574942,7.274033007,-0.349330223,-2.463398633,-3.270913026,-10.31084876,-7.192989826,-12.50985178,-2.65561278,-5.587461338,5.753495559,2.408010254,2.203097862,0.65470537,2.876578896,3.143736016,5.676442835,6.45812393
7.82914507,5.180770678,8.008134365,2.304993229,-2.380892975,-2.830040148,-9.329772412,-6.447357866,-11.20370922,1.186929947,-4.72357485,9.712478958,4.805921156,4.108471911,3.457604195,4.696094213,3.853517766,7.117215295,6.512661202
6.815083985,4.132808658,7.227900185,4.422843265,-2.01690391,-2.049036006,-6.949883073,-3.96385222,-8.874755435,5.769533386,-3.017571102,13.22181077,7.30406576,4.931823917,5.376973519,4.282440586,4.046967904,6.348147737,5.197378072
5.279362588,2.534859399,5.557385958,4.811565351,-1.588063766,-1.270933918,-4.044901052,-0.878371354,-6.095887577,8.861625985,-0.758461771,15.45493226,8.951981265,4.460888085,6.591620084,2.653076532,4.135112622,4.656842225,3.746248216
3.829193944,1.414802859,3.91910933,3.218083466,-1.422507551,-0.866284118,-1.724906084,1.406665557,-3.732536908,8.732648301,1.299830337,16.03408397,9.256519147,3.108294422,6.853996603,1.316780347,4.431538741,3.470141491,3.225273785
2.785650257,1.165330456,2.876774717,0.342727341,-1.84470627,-1.057336469,-0.962278235,1.853901058,-2.681369859,5.313191512,2.284240724,15.02875687,8.289162192,1.546913923,5.575402622,1.125621679,4.847162524,3.284607637,3.693007498
2.05389743,1.388221384,2.337680619,-2.730874133,-2.967023949,-1.78525247,-2.168468532,0.300974499,-3.440083295,0.361572324,1.702997377,12.87501474,6.527076986,0.234281679,2.542594045,1.762565331,4.958218598,3.494051921,4.199665901
1.322815802,1.371305344,1.823695534,-5.18304481,-4.509634613,-2.691588212,-4.905837502,-2.439010947,-5.750053669,-3.569710323,-0.21802361,10.27160336,4.59989736,-0.787685598,-1.459061575,2.195510137,4.394763697,3.144715022,3.630819826
0.422503984,0.780587412,1.044324299,-6.715641032,-5.827152866,-3.25702966,-7.972144429,-4.998628386,-8.622518727,-4.711254575,-2.600707571,8.016638348,3.084845562,-1.697232884,-4.803987859,1.646182992,3.224442389,1.900682367,1.71038791
-0.457857211,-0.014222475,0.258259283,-7.354563289,-6.215899267,-3.059834129,-9.932690377,-6.203531951,-10.83472265,-3.120287563,-4.356096579,6.760916412,2.386153132,-2.531638924,-5.964516431,0.251740236,2.000083688,0.388683218,-0.661235014
-0.877974289,-0.24871974,0.101159924,-7.120570766,-5.357305825,-2.023403962,-9.864293261,-5.711658104,-11.61366001,-0.477977927,-4.726346454,6.759478814,2.663076003,-3.022909887,-4.510739517,-1.089000769,1.409022402,-0.332755194,-2.026830116
-0.498888704,0.559742856,1.025224117,-5.94287845,-3.59426594,-0.494626499,-7.864631563,-4.142085904,-11.03583331,1.175661261,-3.60550128,7.773956657,3.782271882,-2.799735959,-1.359843332,-1.49186346,1.787907539,0.315731519,-1.471696477
0.610096792,2.147254734,2.840111026,-3.895219338,-1.797971082,0.921092679,-4.981833453,-2.615569867,-9.860343422,0.830719156,-1.497404173,9.21358103,5.32445294,-1.781570265,1.921291519,-0.800709034,2.881176573,1.931964134,0.661288578
1.972874602,3.655412143,4.767587496,-1.482822806,-0.857531786,1.68620416,-2.59673501,-2.02851399,-8.946420212,-0.962930832,0.784072428,10.44121638,6.697614268,-0.398409573,4.174456726,0.343912157,4.029620553,3.444332526,2.997705026
3.029262005,4.287827018,5.986446334,0.37918256,-1.119578593,1.620107172,-1.663581118,-2.556619161,-8.718880602,-2.724439563,2.451256943,11.05640236,7.36382044,0.602353248,5.221176541,1.089178929,4.63563207,3.943612083,4.11126986
3.521539725,3.930267198,6.221915875,0.803467256,-2.179653547,0.969803548,-2.289588841,-3.693713741,-9.064210023,-3.258526338,2.97003572,11.00491763,7.10296603,0.658401823,5.570606124,1.077316232,4.542969342,3.327143112,3.491421959
3.626140475,3.216828422,5.888943996,-0.481947636,-3.194744967,0.228406381,-3.857041697,-4.723999751,-9.643376366,-2.501861778,2.182362387,10.51243468,6.179277642,-0.169560196,5.657149274,0.684241783,4.057903566,2.254046348,1.776019245
3.721140744,2.984236509,5.673683513,-2.840642042,-3.503454213,-0.163162103,-5.499551851,-5.225692066,-10.25772667,-1.406110527,0.381597116,9.952500522,5.292204461,-1.171997829,5.374781839,0.630343557,3.641587258,1.522592927,0.134361242
3.991492988,3.568708434,5.913908677,-5.002535347,-3.099328154,-0.032329981,-6.553090956,-5.24107424,-10.91603047,-1.05390295,-1.687245562,9.736114777,5.284531678,-1.422706931,4.333254642,1.335953652,3.560575614,1.4525908,-0.648171889
4.222179693,4.533199391,6.309318199,-5.78445233,-2.602148079,0.506748139,-6.733115806,-5.066395206,-11.59583057,-1.777623651,-3.024652255,10.20247083,6.707280383,-0.378430509,2.535460288,2.576158179,3.78133798,1.790561555,-0.642404902
3.977590287,5.052523827,6.209410562,-4.808529998,-2.748610068,1.194499369,-6.075399412,-4.926650168,-12.02478784,-2.975263721,-2.828850924,11.44682862,9.443050915,1.758017919,0.743638364,3.696612673,4.150774443,2.144013657,-0.477949439
3.030176386,4.630896701,5.230360378,-2.748086808,-3.791820732,1.791035697,-4.839374934,-4.841164593,-11.79326584,-3.699096826,-1.027039205,13.1228597,12.60806252,4.135375529,0.071627478,4.164198851,4.64317914,2.470310077,-0.604233113
1.665937147,3.545773246,3.66658914,-0.9247145,-5.270435195,2.155022686,-3.483413335,-4.747658665,-10.75215505,-3.463420228,1.491966426,14.40686456,14.85377267,5.719659043,1.074103831,3.965740759,5.408853599,3.124927113,-0.787936731
0.571197946,2.640297114,2.332184835,-0.491478122,-6.323557358,2.231987943,-2.620959565,-4.680656419,-9.301661453,-2.584446669,3.244147448,14.31208349,14.98981915,5.819884708,3.130268759,3.53484908,6.566648331,4.416429206,-0.294021576
0.348039759,2.632893761,1.949015185,-1.701303856,-6.307355616,2.026006038,-2.80607155,-4.760649001,-8.205843508,-1.804507887,3.022670627,12.30145058,12.63943976,4.381414841,4.738023623,3.308763105,7.948330214,6.10597198,1.404759152
1.034609751,3.518295222,2.584066881,-3.716805048,-5.241962006,1.611065826,-4.173936861,-4.978086733,-7.992409623,-1.570578769,0.740571684,8.821567767,8.549634939,1.943056508,4.57420584,3.321549044,9.076603567,7.373090997,4.009933712
2.036494111,4.56013806,3.602326549,-5.096352508,-3.758041268,1.156606419,-6.20484006,-5.019249804,-8.437890486,-1.614945629,-2.395490694,5.279098619,4.309781476,-0.65037323,2.494335237,3.18198255,9.460752167,7.361943096,6.432764304
2.561149623,4.884789499,4.175098829,-4.67988991,-2.605346122,0.891884074,-7.907147095,-4.399843203,-8.654395623,-1.207997113,-4.614353179,3.289970475,1.556942121,-2.608208349,-0.349485899,2.439720817,8.992738591,5.883627321,7.512100227
2.234544464,4.189482508,3.926215145,-2.33878793,-2.117909577,0.979028265,-8.423757277,-2.893738251,-7.809134511,0.13078753,-4.778545038,3.593882067,1.086235799,-3.488087818,-2.383583403,1.018625758,8.09593702,3.666065066,6.872811873
1.409160123,2.986125025,3.190779851,0.888236874,-2.044060193,1.368657211,-7.672310012,-0.91275871,-5.919547254,2.075319707,-3.202185426,5.403515318,2.40475843,-3.348313534,-2.775370052,-0.64485017,7.454042606,1.89177479,5.240244618
0.898818009,2.18531357,2.686250671,3.387463563,-1.844437874,1.769499156,-6.498703206,0.561540507,-4.015943065,3.586444215,-1.450100804,6.775080056,4.041898447,-2.716752834,-1.953539686,-1.868267995,7.497092136,1.356524667,3.932644512
1.32817041,2.360859195,2.87695174,3.938791417,-1.189856101,1.801079097,-6.135644789,0.56760089,-3.439753822,3.62691689,-1.213346868,5.885174908,4.462977542,-2.359992995,-1.110496893,-2.185864925,8.048983153,1.911028048,3.892006962
2.600840264,3.284406766,3.553164239,2.437848225,-0.249415679,1.25182875,-7.305552293,-1.11129258,-4.781163092,1.957898467,-3.068107603,2.372880104,3.025838049,-2.905180154,-1.162626815,-1.665239756,8.43945811,2.628362253,4.983249878
3.910575457,4.090620948,3.958833041,-0.118031374,0.449915987,0.257159948,-9.63886294,-3.664003218,-7.320866784,-0.607904558,-6.04509725,-2.252449473,0.365581988,-4.474609295,-2.0606904,-0.86565549,8.020197381,2.554329659,6.101537027
4.302197232,3.928692385,3.357212988,-2.379759494,0.45498905,-0.752759027,-11.88361887,-5.702216474,-9.479771675,-2.715881925,-8.339521151,-5.527783878,-2.042756615,-6.551797937,-2.984979722,-0.486413478,6.693414987,1.437452479,6.021482893
3.363865271,2.589895816,1.590112339,-3.602471005,-0.256158431,-1.320093334,-12.78013172,-6.170953537,-9.965072876,-3.383788439,-8.624067438,-5.695356129,-2.845157166,-8.212319636,-3.166442812,-0.94324324,5.038976757,-0.122927111,4.361615185
1.534149703,0.652269998,-0.780437235,-4.100252358,-1.278658676,-1.257408694,-11.94385206,-5.0551206,-8.709970147,-2.656001911,-6.968118712,-2.923853613,-1.644747454,-8.63192236,-2.552967225,-2.120271995,3.937134723,-1.180368301,1.945945819
-0.193213518,-0.920695253,-2.816011958,-4.840685347,-2.125413065,-0.760420906,-10.08291233,-3.341925344,-6.850341352,-1.523979803,-4.681585069,0.817461098,0.834332626,-7.571926009,-1.736219595,-3.414293776,3.976734784,-1.149818989,0.286831648
-0.931632114,-1.388940517,-3.743608593,-6.47634915,-2.610819097,-0.254372741,-8.400078747,-2.25959364,-5.760857262,-1.175149113,-3.24244984,3.165652658,3.322740784,-5.516005549,-1.266396282,-4.029731841,5.094626158,-0.15596434,0.555042114
-0.444190432,-0.61537437,-3.315346213,-8.584381659,-2.949543575,-0.09085364,-7.668032977,-2.368191958,-5.938928129,-2.112574651,-3.165302673,3.033000572,4.878603856,-3.349922326,-1.05112095,-3.378483741,6.69125093,1.194753437,2.76904758
0.793246219,0.982638237,-1.807725273,-9.778256748,-3.491422423,-0.316856557,-7.700923943,-3.182568627,-6.636114147,-3.767583403,-3.676772439,1.321533205,5.440501597,-1.798042218,-0.442930269,-1.403475014,8.085430266,2.34624524,5.76602743
1.989670844,2.770369652,0.23006701,-8.698992978,-4.320023625,-0.671858713,-7.59460449,-3.581257577,-6.505497285,-4.865654699,-3.396815724,0.184070277,5.717030061,-1.013957126,1.043326634,1.333215077,8.925727552,3.148916365,7.951623729
2.559419017,4.223431801,2.238899472,-5.169956513,-5.059143558,-0.791916984,-6.481340022,-2.649815612,-4.699203512,-4.276627082,-1.435249575,1.414671937,6.565726987,-0.612074776,3.062843609,3.873035205,9.257256516,3.781024341,8.286355672
2.400004971,5.055429209,3.778717914,-0.594159778,-5.06709674,-0.455327349,-4.167091583,-0.307590556,-1.512959211,-1.760852389,1.968207371,5.169534701,8.357764656,-0.093702359,4.500651622,5.322317204,9.261072327,4.394201097,6.83844141
1.80463291,5.177735025,4.559717265,2.804429439,-3.889451776,0.301806388,-1.182800665,2.709419074,1.903155005,1.877540041,5.708610891,9.917328589,10.77607545,0.680167304,4.293895692,5.321778761,8.955198715,4.870331165,4.583130837
1.170845612,4.641782519,4.486010648,3.41303894,-1.634281806,1.252299191,1.692144262,5.406832105,4.453823817,5.294450297,8.685469133,13.56176663,13.12448102,1.346834596,2.339500708,4.236692862,8.144804704,4.926531777,2.674493634
0.765589008,3.644963555,3.734236635,1.301233325,1.011587989,2.142554702,3.958061012,7.14017309,5.832229504,7.392748428,10.52680564,14.82826915,14.8411591,1.338568019,-0.319448202,2.912934599,6.654340877,4.441103621,1.749803866
0.6806329,2.53601055,2.760570306,-1.867059072,3.142193087,2.823108678,5.534255979,7.830028937,6.502580786,7.866133653,11.60740224,13.9008308,15.8027047,0.370753215,-2.240000091,2.123376215,4.605378039,3.648813331,1.725451065
0.913770019,1.709760583,2.124368689,-4.01346725,4.118895315,3.272667737,6.484343367,7.732764915,7.044978723,7.188084982,12.433391,11.95969099,16.22745087,-1.280626735,-2.659280789,2.067457526,2.460723281,2.97920713,2.121667334
1.427320455,1.391733873,2.169466819,-4.029566032,3.86378549,3.540321991,6.693791899,7.081805168,7.513484567,6.13650314,12.99100232,10.1304843,16.33095659,-2.943095185,-2.002858663,2.28182339,0.769186487,2.664530274,2.557774539
2.117903165,1.46412707,2.775284223,-2.354432806,2.798868934,3.679513076,5.876600728,5.947950323,7.388069838,5.239909651,12.64951558,8.728257712,16.06897124,-4.025495932,-1.402000284,2.035322903,-0.182402217,2.487327605,2.990069833
2.768230551,1.507132558,3.396973974,-0.399942175,1.520268387,3.721927822,3.928091565,4.383673736,6.123307677,4.524035492,10.70611479,7.3226507,15.19335056,-4.427070405,-1.664610906,0.913587505,-0.51825623,1.934503552,3.544955585
3.091593487,1.073872194,3.413787053,0.614841707,0.45041686,3.68377559,1.263875715,2.613772809,3.751934644,3.666152178,7.106482866,5.42161664,13.55748139,-4.552239824,-2.625288183,-0.859090168,-0.607271787,0.658273501,4.174326456
2.882608326,0.01276631,2.551869533,0.450318875,-0.323069849,3.571282432,-1.245480534,1.003241628,0.973575341,2.355877783,2.72707579,3.093396599,11.38740896,-4.92708833,-3.457978931,-2.612075835,-0.739155245,-1.152648526,4.50987871
2.158422713,-1.411375901,1.065083257,-0.311858965,-0.976098995,3.373447063,-2.780764014,-0.211655056,-1.351552008,0.550029633,-1.039017094,0.982355472,9.259013708,-5.736970277,-3.655722416,-3.771106168,-0.92773949,-2.836542848,4.098523679
1.153364979,-2.695782834,-0.46535803,-1.091925269,-1.750186489,3.062489459,-3.14027424,-1.163308254,-2.839650125,-1.542699256,-3.104252957,-0.248243646,7.761432499,-6.665792932,-3.74184322,-4.295097227,-0.99513113,-3.731978302,2.83693163
0.150761852,-3.434777845,-1.550337524,-1.966577757,-2.774120628,2.622790702,-2.887633623,-2.278362451,-3.780318504,-3.653573099,-3.329799079,-0.514946153,7.086074915,-7.166382887,-4.965513281,-4.634248841,-0.825300845,-3.669505233,1.209203381
-0.711689426,-3.546218115,-2.095730959,-3.527497212,-3.98827422,2.094981389,-2.926129354,-3.880766924,-4.734761704,-5.590412487,-2.55618137,-0.413708701,6.85770975,-6.932894505,-8.124302343,-5.240004407,-0.520993513,-3.05656191,0.063150936
-1.491798422,-3.22701496,-2.357223356,-6.082502275,-5.169969029,1.593019583,-3.812768474,-5.787359323,-5.918124456,-7.182684931,-2.03244246,-0.729861385,6.364218972,-6.173755839,-12.489236,-6.046885722,-0.296288096,-2.471931217,0.040181613
-2.303328309,-2.709890215,-2.61094497,-8.976364285,-6.020617013,1.266001394,-5.336389349,-7.272382341,-6.928559431,-8.128593845,-2.637553434,-1.767528516,5.064352205,-5.440831997,-15.83985052,-6.387083682,-0.199766186,-2.113838869,1.08601587
-3.119514646,-2.051075659,-2.839366565,-10.74454476,-6.283768155,1.225171718,-6.663997286,-7.496592933,-7.055315693,-7.976316354,-4.361605314,-3.040466036,3.052540913,-5.134558481,-15.76875025,-5.445570132,0.052625501,-1.587035786,2.442364538
-3.714050104,-1.126069427,-2.708287043,-10.09129313,-5.86958582,1.492050149,-6.907159097,-6.103193835,-5.873906992,-6.369873173,-6.298413366,-3.554657016,1.166970434,-5.084133091,-11.36483887,-2.908728917,0.928381072,-0.237530297,3.157001699
-3.814845283,0.192039634,-1.852811612,-6.931149384,-4.937959789,2.006709899,-5.661205991,-3.517644065,-3.596369436,-3.420138561,-7.101070858,-2.449534482,0.631522189,-4.568404087,-4.007343266,0.711882995,2.684690232,2.223057062,2.738261705
-3.347181039,1.857731963,-0.223206573,-2.614817397,-3.870200028,2.679051515,-3.154389328,-0.70363277,-0.891016016,0.1308805,-5.655797829,0.467893714,2.396503997,-2.813924718,3.365959983,4.340625272,5.04476608,5.323364464,1.458485506
-2.545486428,3.643611184,1.806484687,0.903036547,-3.093855868,3.426117689,0.000132071,1.449052207,1.626776866,3.192064604,-1.682135645,4.616050746,6.529632813,0.368155133,8.00795706,6.975754111,7.243121603,8.019857464,0.087109445
-1.812765555,5.286273128,3.658931495,2.338270522,-2.826048132,4.15809476,3.159662733,2.646161494,3.756175115,4.945630595,3.988244088,8.932946741,12.00590661,4.276019773,8.877984341,8.214788427,8.458727931,9.354414955,-0.712203011
-1.423137401,6.631830102,4.920066095,1.824528847,-2.897692243,4.738165906,5.827637021,3.246507752,5.624356683,5.37884701,9.607735825,12.30617345,17.05107917,7.59397303,6.911260678,8.309732683,8.335825353,9.09267277,-0.826572661
-1.30691723,7.646222011,5.559741445,0.606720052,-2.814431085,4.982478605,7.61249355,3.853005118,7.293046353,5.286157976,13.17545266,13.89706801,19.90242207,9.095088676,4.019300715,7.804613037,7.202129559,7.867209631,-0.637040915
-1.099398491,8.312860316,5.854079166,0.005470557,-2.066971994,4.736976822,8.16045235,4.782480245,8.483300835,5.669120815,13.32584476,13.30214316,19.61115623,8.311787848,1.719014806,7.126475424,5.816756919,6.734160409,-0.549176342
-0.420615057,8.566486313,6.110431452,0.514140365,-0.510278579,3.987618999,7.240998531,5.813278491,8.708973233,6.937564859,10.00612099,10.62132907,16.46058095,5.740023578,0.420868973,6.460051353,4.840232258,6.489685037,-0.551519187
0.833239855,8.370633856,6.439781151,1.684207277,1.458280568,2.906794385,4.948066977,6.356815521,7.696119133,8.512286007,4.522143658,6.464101958,11.76296313,2.467463094,-0.277654188,5.906048852,4.426781326,7.239485166,-0.211039048
2.407752102,7.872550535,6.743763697,2.73141366,3.081534079,1.773842707,1.798381606,5.871413758,5.675028044,9.158075924,-1.15086858,1.819460478,7.142550078,-0.496735494,-0.806171299,5.637175458,4.230256045,8.478758405,0.875722852
3.860559187,7.444309476,6.874355625,3.210828377,3.693538359,0.812814165,-1.441315653,4.195888898,3.243095903,7.824838445,-5.428059476,-2.27898265,3.716724433,-2.736304085,-1.158429397,5.802978691,3.783455525,9.539080273,2.574330338
4.828057787,7.489897879,6.781888591,3.159304588,3.137228536,0.07382847,-4.12328765,1.602319705,0.905197815,4.377331355,-7.890568081,-5.196462234,1.65388485,-4.476498831,-1.118188632,6.250981999,2.926346686,10.0193207,4.125344874
5.180638678,8.122705561,6.512058426,2.691482937,1.8508932,-0.538512823,-6.009904563,-1.392557032,-1.285517679,-0.322745001,-9.273574774,-6.978561937,0.350408863,-6.200641931,-0.812475148,6.399641634,1.943494466,9.903037589,4.616443437
4.982530576,8.985210241,6.083222034,1.582337833,0.556883881,-1.10811092,-7.258969828,-4.270304223,-3.644323355,-5.01341813,-10.69975053,-8.225440937,-0.932758873,-8.157659737,-0.913043232,5.520532285,1.321582213,9.360450186,3.668643922
4.345707736,9.408673407,5.396306762,-0.640679795,-0.22333709,-1.558795708,-8.134970686,-6.655089,-6.396393296,-8.817768262,-12.73255082,-9.582842959,-2.433427074,-10.12217001,-2.177336214,3.296043926,1.34017317,8.472343333,1.776521622
3.331845156,8.827670992,4.284791425,-4.11805359,-0.477246939,-1.65598557,-8.711279507,-8.338758637,-9.267403621,-11.61141292,-14.94566646,-11.18971277,-3.694413135,-11.55094191,-4.710695695,0.17600383,1.8223855,7.114910707,-0.007833105
1.968838088,7.117302601,2.65449554,-8.160588912,-0.620514562,-1.175746277,-8.817212552,-9.252219504,-11.51449345,-13.73872981,-16.2936054,-12.50176937,-3.926082648,-11.98144829,-7.676774997,-2.873120829,2.224276651,5.052299714,-0.834024731
0.313324794,4.554366321,0.559076638,-11.40902365,-1.112179901,-0.107025782,-8.24153184,-9.429493826,-12.3893415,-15.38604734,-15.94066062,-12.64744452,-2.631181607,-11.35815024,-9.834068446,-5.140500852,1.972305097,2.098203397,-0.673809674
-1.549142242,1.424219454,-1.879619431,-12.65183336,-2.072786668,1.28973396,-6.963971752,-8.952277158,-11.62734294,-16.17849189,-13.86592765,-11.05849329,-0.014128196,-10.05251402,-10.52547944,-6.865774924,0.788897197,-1.80851132,-0.316266134
-3.58125468,-2.364282142,-4.624174504,-11.66541867,-3.189824774,2.631767946,-5.178453949,-7.861423607,-9.533157913,-15.34307641,-10.78470826,-7.894844746,3.125986035,-8.585736858,-10.27408934,-9.205604969,-1.205125025,-6.632420146,-0.74088863
-5.842287005,-7.251916694,-7.760371895,-9.346992735,-3.955343157,3.658399027,-3.099071717,-6.087545508,-6.610868143,-12.28787967,-7.517526074,-3.9486634,5.919747256,-7.279896489,-10.39967874,-13.351905,-3.62477888,-12.26203284,-2.360369543
-8.395250244,-13.52241332,-11.32403074,-6.987123825,-4.024471151,4.371495941,-0.773908488,-3.495925571,-3.117363385,-7.114943468,-4.392845657,-0.134033788,7.958971782,-6.097855677,-11.88244175,-19.40234984,-6.036728197,-18.42394482,-4.717097978
-11.09969691,-20.69881211,-15.03774687,-5.284421559,-3.414917085,4.957168679,1.867142505,-0.075870773,1.006302121,-0.679072541,-1.203610364,3.010591599,9.442134943,-4.772440201,-14.37790691,-25.88536419,-8.090023453,-24.53629815,-6.844609612
-13.47493035,-27.39279296,-18.22280309,-3.95528536,-2.426523778,5.560769837,4.748439865,3.839288643,5.733534417,5.792711418,2.281512437,5.431763615,10.86193578,-3.102194693,-16.23283624,-30.41797994,-9.519342858,-29.67062104,-7.977960308
-14.82331628,-31.854388,-20.0551759,-2.281702661,-1.396921257,6.114254641,7.438579447,7.52191133,10.46446164,11.17303255,5.761245874,7.27541896,12.52331801,-1.174305575,-15.57811735,-31.11557467,-10.10600661,-32.75637531,-8.043558887
-14.60991435,-32.91116615,-20.04705679,-0.096179566,-0.519683482,6.368388264,9.261895051,10.08589215,13.97869515,14.66880116,8.355709716,8.548461694,14.28816057,0.653491659,-11.7057956,-27.75798828,-9.698794256,-32.97949589,-7.571345059
-12.84994871,-30.63010506,-18.39828644,1.725472563,0.146697998,6.100686452,9.714950856,10.90803864,15.00974531,15.79928165,9.168633135,9.082667117,15.72237226,1.984322011,-5.687685518,-21.86284339,-8.304392306,-30.14909211,-7.156207472
-10.18504316,-26.20156041,-15.90569798,1.797735367,0.551016272,5.313312497,8.859440215,9.962039241,13.07391498,14.36448734,7.995901142,8.825442266,16.47046745,2.633599735,0.232338575,-15.63340217,-6.159457642,-24.79588209,-6.945015992
-7.531409258,-21.12738889,-13.44519934,-0.5846292,0.584801348,4.243837544,7.329732684,7.828193293,8.917695979,10.60144789,5.559651388,8.122390772,16.5040719,2.698893629,4.010955045,-10.59216782,-3.692323882,-17.94252536,-6.565412672
-5.520258595,-16.33063515,-11.39827024,-4.60164232,0.181244174,3.179841747,5.903061356,5.376340928,4.207248445,5.416868436,3.038325844,7.62106079,16.03245617,2.399149481,4.941586587,-6.908615007,-1.374865734,-10.70883191,-5.518482123
-4.144618187,-11.84996678,-9.473770102,-8.197094898,-0.513954623,2.245966445,4.971777943,3.359634556,0.661320853,0.350125178,1.266700522,7.774745544,15.19282729,1.826347908,3.803864007,-3.831412002,0.437456452,-4.003195145,-3.674854383
-2.894013177,-7.293328584,-7.083203441,-9.382745408,-1.102694021,1.358118575,4.367882357,2.194579165,-0.761550987,-2.954700374,0.265605606,8.353469376,13.8572159,0.831901643,2.066903116,-0.742582738,1.571345808,1.558532736,-1.455577359
-1.281752045,-2.602529381,-3.98170181,-7.592144602,-1.137954866,0.38731998,3.693499585,2.007283929,-0.104531651,-3.564673332,-0.525633747,8.464324626,11.79645941,-0.830577175,0.856804754,2.105231485,1.98974001,5.569105827,0.431934213
0.652521115,1.560536489,-0.652775347,-4.049434379,-0.457374542,-0.620039669,2.853271904,2.781257594,1.943620705,-1.812543094,-1.551168093,7.204573478,9.10207321,-3.193298104,0.442644406,3.772185826,1.715740256,7.761668497,1.46278111
2.277580444,4.156627138,1.900401593,-0.888901602,0.623612185,-1.380125316,2.280269558,4.382176185,4.582472083,0.87221044,-2.610957545,4.504749032,6.479551176,-5.837885774,0.460846068,3.521367565,0.821017156,8.075662442,1.589218443
2.812141571,4.560921105,2.824827488,0.273167198,1.458707419,-1.548252164,2.603645228,6.420341682,7.165720129,2.811949305,-2.977691092,1.457731765,5.061455927,-7.957674713,0.492955984,1.600929552,-0.513183033,6.799809329,1.165374367
1.93227314,3.132789342,2.038047772,-0.755278876,1.494378693,-0.999189676,4.018296105,8.159062326,9.123800266,3.043390275,-2.054929399,-0.25126276,5.751635934,-8.74249217,0.435241982,-0.784286353,-1.955580839,4.613492204,0.624773779
0.061894591,1.067326956,0.312925996,-2.930451912,0.665838513,0.029620779,5.928895634,8.722257936,9.851643558,1.738764604,0.010232544,0.495935634,8.524358725,-7.868627037,0.422754394,-2.306716478,-3.108559469,2.39730562,0.204759041
-1.889205474,-0.378140817,-1.24570414,-4.931157487,-0.545079682,1.070037113,7.250387772,7.607131459,8.887138305,-0.139727086,2.311433037,3.335103236,12.22014837,-5.769309631,0.529754584,-2.463390984,-3.71398432,0.868912463,-0.089082451
-3.137658354,-0.681250812,-1.933512746,-6.032040425,-1.44916061,1.740459322,7.190092966,5.16430712,6.341137232,-1.592210079,3.796594446,6.484549787,15.07748425,-3.475461047,0.629268392,-1.857399017,-3.843894847,0.264694946,-0.332936768
-3.514591769,-0.266583528,-1.83783748,-6.27087208,-1.633777719,1.999975406,5.888704766,2.59825831,3.158888578,-2.135723833,3.999411032,7.837600428,15.72126236,-2.086259646,0.551523685,-1.604492882,-3.901705147,0.286894372,-0.556093043
-3.466527919,-0.009596277,-1.620747208,-5.999656101,-1.224390586,2.139057543,4.364604435,1.328692435,0.801179249,-1.835035796,3.283859354,6.357428251,13.97945455,-2.175331544,0.321734911,-2.384207454,-4.375407305,0.360689958,-0.76887047
-3.60317029,-0.473564084,-1.907834022,-5.419850038,-0.735656638,2.520434145,3.758897929,2.056957855,0.386630774,-0.991928407,2.425888405,2.78896113,10.98585644,-3.492569555,0.159880854,-3.925118209,-5.477345557,0.0291383,-1.080928386
-4.179163251,-1.497727758,-2.784543685,-4.57679283,-0.650358777,3.281842878,4.461037602,4.192484185,1.861277402,0.074518952,1.922043909,-0.83180743,8.49369016,-5.14268816,0.186490825,-5.315933866,-6.921826313,-0.777530641,-1.726168655
-4.922087278,-2.421180269,-3.777469387,-3.711930598,-1.068438596,4.230129627,5.809310519,6.11594813,3.872681533,0.949774973,1.621850993,-2.538891416,7.839430902,-6.125345033,0.128318403,-5.827285125,-8.024769641,-1.761148142,-2.899196149
-5.311064691,-2.687574552,-4.283871983,-3.444712735,-1.687980392,4.987403982,6.600236383,6.174533463,4.563802119,0.980014212,0.964027307,-1.725963867,9.202225557,-5.901798917,-0.613362627,-5.518428913,-8.09140503,-2.514768683,-4.516618191
-5.037744059,-2.288884985,-4.059117389,-4.413304017,-2.09449823,5.246520943,5.988769446,3.751196739,2.800247932,-0.540130267,-0.443391081,0.507950725,11.58047753,-4.650374856,-2.483319621,-5.120661194,-6.84515201,-2.811117097,-6.133505686
-4.253318942,-1.692082561,-3.360112216,-6.596406402,-2.092063857,4.927332903,4.063257484,-0.336008464,-1.030677593,-3.781564154,-2.437089223,2.154677945,13.43637378,-3.082336192,-5.252372882,-5.325657726,-4.606355903,-2.711368287,-7.141516163
-3.413099911,-1.361149055,-2.659165112,-8.976284023,-1.808606798,4.13969216,1.676290254,-4.379568974,-5.234587062,-7.858882844,-4.429613941,1.656198882,13.57116414,-1.967843115,-7.945268707,-6.110245747,-2.095637095,-2.437411569,-7.13205606
-2.881212262,-1.323615375,-2.20568504,-10.01543352,-1.529361032,3.037432605,-0.262213963,-6.872718725,-7.892529368,-10.99965806,-5.892273934,-1.089829268,11.7214223,-1.687058965,-9.372687193,-6.682782809,0.002432337,-2.131869013,-6.147821573
-2.649755262,-1.160302538,-1.821014875,-8.719979089,-1.447007799,1.725892059,-1.40703334,-7.374026243,-8.043473632,-11.55497239,-6.719914183,-4.702456561,8.601841221,-2.075873314,-8.908210321,-6.101605906,1.413435615,-1.707197816,-4.624952092
-2.40641656,-0.407559977,-1.092064537,-5.47249527,-1.55778071,0.302438568,-2.024381785,-6.582033092,-6.15952982,-9.221868311,-7.156542172,-7.221645043,5.463313146,-2.624236406,-6.908493519,-4.057149574,2.333878567,-0.909121421,-3.084433944
-1.870721863,0.993707883,0.215493806,-1.903905595,-1.760866775,-1.044033856,-2.510104998,-5.657661603,-3.657445784,-5.478154791,-7.403451837,-7.322836724,3.464737212,-2.857682915,-4.439223196,-1.186713256,3.158194877,0.44722668,-1.836575029
-1.088801665,2.589038267,1.881441926,0.180431601,-2.011815931,-2.019599101,-2.882124914,-5.357547357,-1.883797572,-2.710389321,-7.337879199,-5.087543716,3.17794981,-2.637818483,-2.529716856,1.318750006,4.093005542,2.245430862,-0.929401658
-0.42294018,3.721223867,3.324470974,0.02092531,-2.341534432,-2.361058728,-2.731703742,-5.606630141,-1.323128683,-2.551197491,-6.647654947,-1.906404836,4.411408537,-2.203880148,-1.554853686,2.497810734,4.955340917,4.025659721,-0.331650607
-0.244368743,3.989557305,3.990108178,-1.668599805,-2.714637177,-2.02768038,-1.665789218,-5.739939845,-1.518760445,-4.67686096,-5.256620309,0.371786802,6.367683391,-1.968738421,-1.208508629,2.201182067,5.307417515,5.192722107,-0.119035874
-0.594999704,3.489293098,3.730081826,-3.362060814,-2.897736786,-1.275930592,0.19111587,-5.130001988,-1.62671968,-7.058561958,-3.597397315,0.516188408,8.026068379,-2.239577702,-1.009116184,1.084130715,4.824162365,5.359572025,-0.441265779
-1.108145844,2.677694459,2.895334768,-3.887087374,-2.532581533,-0.524480662,2.124494565,-3.684570685,-1.105031362,-7.533197325,-2.403793943,-1.403234331,8.582732371,-3.054181855,-0.829096251,0.088443046,3.610835471,4.604388337,-1.284200714
-1.258013443,2.027006638,2.099992691,-3.145801949,-1.417567053,-0.092145081,3.284881475,-1.882010352,-0.052703579,-5.46739442,-2.154369418,-4.099482197,7.774200862,-4.211432656,-0.959102343,-0.159046137,2.219757706,3.45767793,-2.281802958
-0.737193263,1.764034587,1.853452768,-1.885681332,0.231967642,-0.006328332,3.290680749,-0.406285376,0.936326396,-2.175478061,-2.670791499,-5.860182417,5.953209195,-5.426192416,-1.67721134,0.377624114,1.33559088,2.604155305,-2.833177948
0.333304922,1.86693526,2.318844934,-0.856282941,1.813816037,-0.028780775,2.464948012,0.283488224,1.179313702,0.234016409,-3.286706387,-5.589197487,3.884118347,-6.467053862,-2.768987961,1.295173136,1.346273139,2.477613824,-2.512815661
1.508802786,2.241132543,3.320548614,-0.172918622,2.705009898,0.129957467,1.516001577,0.145925651,0.244258631,0.596780806,-3.500198493,-3.481854105,2.355502977,-7.184630941,-3.500934325,2.121002408,2.107582107,3.013481094,-1.457841749
2.334737054,2.862048286,4.529375332,0.571672463,2.703619044,0.585127557,0.955628706,-0.541660527,-1.942890157,-0.456473236,-3.550803221,-0.908129241,1.80527798,-7.454717272,-3.133342929,2.606853365,3.07266799,3.731999853,-0.36680853
2.618754819,3.754487287,5.659497531,1.660210035,2.178699039,1.215581018,0.759877613,-1.405556769,-5.170301598,-1.229706533,-4.370047957,0.452096979,2.149414227,-7.140859053,-1.547404581,2.795584839,3.691322369,4.103002887,-0.033220986
2.478551906,4.869357791,6.562540853,2.792286965,1.776117921,1.792296336,0.537481353,-2.126230224,-9.056476901,-0.578466749,-6.875915975,-0.31273175,2.887517393,-6.155651243,0.575289355,2.908069255,3.784564726,3.939401866,-0.739908808
2.183297461,6.021990189,7.219835073,3.33040647,1.900822622,2.167212279,0.008178915,-2.463502675,-13.14882873,1.058978444,-11.17695809,-2.772130022,3.398457832,-4.591832585,2.211120389,3.182853252,3.620158433,3.532786016,-2.004750075
1.958238927,6.980450935,7.699925601,3.042416187,2.401807282,2.357847473,-0.672815474,-2.245004042,-17.03860335,2.157775963,-16.3848756,-5.503725856,3.243695806,-2.79951352,2.727351824,3.756957504,3.643659286,3.421894706,-2.921552815
1.907393364,7.627387262,8.125907763,2.587190253,2.727608774,2.471554468,-1.047089458,-1.417150273,-20.52189081,1.677566656,-21.25527922,-7.155126613,2.323691853,-1.295825954,2.285376956,4.603739314,4.086720014,3.957292809,-2.8596085
2.067394141,8.037382243,8.641046126,3.165826589,2.418244696,2.557766661,-0.816663094,-0.150649382,-23.74552432,0.238235545,-25.17536661,-7.469660224,0.847884678,-0.515002069,1.5987422,5.528866773,4.772804889,4.991819187,-1.968343624
2.481786932,8.39407698,9.347926276,5.527501863,1.502720485,2.528133361,-0.211497858,1.107816355,-27.21864368,-0.27129287,-28.69895626,-7.508537636,-0.814806972,-0.549829685,1.289898182,6.248578601,5.286424755,5.94829399,-1.062695003
3.190717057,8.830441835,10.24021338,9.177542763,0.451356324,2.207875731,0.075611442,1.735638943,-31.63287146,1.576386902,-33.18311849,-8.869143964,-2.310820221,-1.07883007,1.418896,6.5554857,5.376969432,6.235818441,-0.95702137
4.145704879,9.348798411,11.18850607,12.54980791,-0.268361733,1.459866566,-0.665296517,1.173331329,-37.57341025,5.180981596,-39.81672022,-12.46431452,-3.448527937,-1.564962162,1.566672743,6.492748414,5.262144035,5.710440622,-1.773498598
5.159909954,9.890515354,12.01998713,14.10280276,-0.616997136,0.271026748,-2.714223859,-0.819816956,-45.28900632,7.999866978,-48.82307908,-17.79996799,-4.301708005,-1.618103745,1.330275273,6.390712135,5.551701193,4.824381268,-2.789748538
5.986649862,10.46743922,12.65143003,13.47308582,-0.979495485,-1.253531985,-5.828294667,-4.035104357,-54.63705239,7.40267371,-59.4473474,-23.33836984,-5.244448217,-1.278737312,0.717274952,6.678217955,6.803109886,4.335506707,-2.964164591
6.496315806,11.20047046,13.17202545,11.72090046,-1.714023166,-2.948439811,-9.524824929,-7.876273293,-65.1816265,2.841753823,-70.65975235,-27.69207117,-6.860702895,-1.015772024,0.054898326,7.561527093,9.028567672,4.788373679,-1.728635088
6.8111697,12.20752299,13.79732506,10.453271,-2.668469554,-4.624323906,-13.43737142,-11.58085154,-76.33022581,-3.501141675,-81.91291461,-30.71150186,-9.694167942,-1.424614043,-0.468561016,8.819748809,11.5490049,6.161970346,0.581079254
7.268671687,13.44934721,14.71911803,10.56813971,-3.151194192,-6.064696649,-17.42141055,-14.50454061,-87.42850523,-8.234396259,-93.29610341,-33.57497367,-13.91150274,-2.826127302,-1.119967397,9.92685305,13.35508499,7.95203895,2.993122067
8.216188469,14.70623532,15.96912611,11.68246003,-2.456460108,-7.04077073,-21.36965641,-16.3578015,-97.83560715,-9.280508351,-105.0105129,-37.76784609,-19.07423668,-5.042231442,-2.395817888,10.46086781,13.75197786,9.609888659,4.634648378
9.780365746,15.74390931,17.40849063,12.69395516,-0.52511784,-7.401071607,-24.99768627,-17.29847876,-107.0457892,-7.369507757,-116.717834,-43.74686546,-24.22465236,-7.498813678,-4.393628585,10.4918448,12.8277208,10.97139489,5.331535739
11.77948453,16.53376901,18.84809804,12.91819835,1.858887785,-7.202410017,-27.88412612,-17.82320817,-114.8444127,-5.294851654,-127.4255015,-50.38344457,-28.32397481,-9.572121563,-6.385206301,10.60210533,11.39063684,12.31905332,5.597996603
13.83354512,17.31124363,20.18923964,12.74040129,3.577901556,-6.759143761,-29.77510694,-18.48020174,-121.3728238,-5.572525696,-136.0707048,-55.69212336,-30.82356899,-10.92683903,-7.118046731,11.46207806,10.40574827,14.02735392,6.058391413
15.57266612,18.38187566,21.45522331,13.18116499,4.022560395,-6.509054879,-30.86239572,-19.53862253,-126.9781483,-8.449320111,-142.3083342,-58.32337284,-31.99875462,-11.61807605,-5.753438099,13.26444625,10.33643502,16.09851092,6.816434789
16.78140557,19.8168127,22.68322894,14.78802946,3.559118947,-6.739117111,-31.72380087,-20.82456028,-131.8914758,-11.86925196,-146.7932101,-58.65857494,-32.7829741,-11.92153282,-2.714881308,15.48095957,10.87341823,18.00243976,7.322786232
17.39370109,21.30346524,23.77613432,16.91027506,3.187171543,-7.365333479,-32.91471967,-21.87642089,-135.9785283,-13.33617218,-150.6748486,-58.62375946,-34.16945307,-12.0613308,0.336126942,17.17974779,11.24251238,18.99265583,6.864305343
17.39491361,22.30518632,24.45932447,18.09052369,3.634365058,-7.966518355,-34.54750177,-22.36664028,-138.8263177,-12.04509828,-154.7146753,-60.33111926,-36.56858277,-12.06177917,1.532450647,17.68648711,10.84510388,18.67077263,5.266098468
16.76396002,22.4224259,24.40495029,17.28579571,4.646994699,-8.092984506,-36.2510533,-22.5055849,-140.1835722,-9.511133274,-158.7708152,-64.57172297,-39.5674983,-11.81977729,0.127101413,17.06927542,9.738820159,17.34794266,3.204347453
15.53242519,21.66864244,23.44604485,14.83429818,5.112387902,-7.637510378,-37.58437108,-23.08493441,-140.4297296,-8.267758146,-162.0704681,-70.28647114,-42.26384483,-11.29474914,-2.925436074,16.0509868,8.60051832,15.89667707,1.834353726
13.90406512,20.44361674,21.72545092,12.25767441,3.960008856,-6.970313047,-38.55433075,-25.03440873,-140.6173829,-9.829668178,-163.9930015,-75.36299628,-43.92917969,-10.61582024,-5.639387701,15.422643,8.220044794,15.1901795,1.993025694
12.29443542,19.24713345,19.67271767,11.01182841,1.107440019,-6.699806887,-39.75041065,-28.73830386,-141.8963049,-13.62833399,-164.6430876,-78.08692322,-44.51478329,-9.994645103,-6.433689333,15.45486874,8.928958006,15.55773012,3.586368903
11.20028488,18.3920661,17.82919565,11.26701438,-2.357835093,-7.217737635,-41.91108638,-33.60057881,-144.6340843,-17.66856672,-164.7017345,-78.13596784,-44.63634658,-9.527325408,-5.208700166,15.80840413,10.39692557,16.66749309,5.638663646
10.95496372,17.95020921,16.63832252,11.81829037,-4.94621387,-8.379889129,-45.23855915,-38.23020017,-147.8950229,-20.15420275,-164.7145792,-76.46262195,-45.0723763,-9.092691128,-3.209806118,16.00769465,11.91962959,17.89544072,6.972814526
11.5417361,17.92388573,16.31341514,11.2400051,-5.862344963,-9.588652681,-49.04177483,-41.18554718,-149.7885495,-20.63093687,-164.4996746,-74.33716477,-46.17407822,-8.484342475,-1.814249813,16.03327663,12.93514084,18.84635215,7.015843963
12.61453928,18.41315859,16.81463503,9.262349408,-5.516840501,-10.23201018,-52.05984376,-41.7869256,-148.5911812,-19.83006111,-163.2492274,-72.42995282,-47.62983492,-7.696166153,-1.277430959,16.46109592,13.35326401,19.58991664,6.146167622
13.72458878,19.5624629,17.89676232,7.098347245,-5.031939352,-10.14160104,-53.26718319,-40.43097647,-143.9186232,-18.66536383,-160.2517179,-70.63106722,-48.72892971,-7.102626881,-0.523535023,17.96561833,13.47332241,20.44479057,5.361428903
14.59241787,21.31581207,19.18734796,6.358851614,-5.185479486,-9.70421088,-52.54686061,-38.20351385,-137.0881757,-17.50936882,-155.5642873,-68.56641349,-48.87627503,-7.310192541,1.803129092,20.58891159,13.62251935,21.54878998,5.548487053
15.23002986,23.24833698,20.29485701,7.48837215,-5.725795505,-9.530507331,-50.69929906,-36.11068132,-130.3320247,-16.37465781,-149.981743,-66.16578737,-47.94059115,-8.709117453,5.88949964,23.44391488,13.86227123,22.63902424,6.895037734
15.83702711,24.72286584,20.95547614,9.169644983,-5.662265046,-9.940146041,-48.77671556,-34.51015725,-125.3498875,-15.54328365,-144.2897926,-63.69617611,-46.19692003,-11.03582152,10.1593101,25.2026569,14.01008961,23.26651075,8.826363942
16.57046062,25.32754831,21.1731432,9.359411805,-4.265601891,-10.67493318,-47.27151014,-33.11402317,-122.2033002,-15.6751759,-138.4850126,-61.2892554,-43.98268755,-13.32308067,12.13389726,25.05647663,13.91378192,23.25890459,10.43915957
17.37760359,25.242129,21.24569288,7.163373235,-1.863785772,-11.0742413,-45.7959226,-31.4418877,-119.3410321,-17.04194436,-131.7392206,-58.54823896,-41.41307654,-14.37507546,10.17163721,23.38504421,13.67820014,22.98942211,11.06919159
18.01508167,25.16453403,21.59412621,3.910876627,0.316598771,-10.58014053,-43.48480712,-29.25762816,-114.7399161,-18.65376319,-123.2450731,-54.76617757,-38.40877337,-13.50966018,4.762735776,21.5444529,13.59605582,23.15119727,10.60363272
18.21832649,25.77017116,22.44798129,2.358389447,1.159132812,-9.178295087,-39.77316916,-26.61983932,-107.3427694,-18.45590196,-113.2410162,-49.66118072,-34.9726509,-11.06057011,-1.641030675,20.87652706,13.82608204,24.17028445,9.400691162
17.86910348,27.10352886,23.59275001,4.525820193,0.617673186,-7.432350297,-34.91985635,-23.60616422,-97.77706908,-14.87865649,-103.2410081,-43.93348772,-31.40331807,-8.244604212,-6.162574551,21.69392281,14.12624923,25.74438036,7.973758735
17.03028646,28.42756813,24.40503295,9.919833896,-0.274665423,-6.088349475,-29.88157018,-20.11687555,-87.88740515,-8.557303843,-95.09695206,-38.98727146,-28.1829607,-6.424550464,-7.261920877,23.05456315,13.93584641,26.94278426,6.708769968
15.84839868,28.72466528,24.22251568,15.69876137,-0.416442894,-5.554637436,-25.67331063,-16.07843316,-79.48585655,-2.46118011,-89.54091329,-35.87559461,-25.58771564,-6.239535696,-5.448570615,23.52674112,12.80175167,26.8583435,5.770242859
14.44288787,27.49727046,22.82644192,18.7687889,0.218105868,-5.645559096,-22.73798844,-11.91385513,-73.25782601,0.209301697,-85.41686151,-34.30663856,-23.36373067,-7.198217282,-2.523201356,22.34619747,10.81573995,25.32279148,5.157735717
12.89857598,25.21930274,20.67251455,18.15267221,0.393850551,-5.761821807,-20.79179711,-8.758128368,-68.57431424,-1.052465863,-80.3736697,-32.65304532,-20.8134032,-8.026175705,-0.067857678,20.03532619,8.670171876,23.09597774,4.779306045
11.35809328,23.02629259,18.64262244,15.66108402,-1.313402122,-5.348748599,-19.19641026,-7.992317879,-64.23462072,-2.875306168,-72.6378351,-29.1470713,-17.31431081,-7.534438478,1.584873755,17.97746351,7.226535478,21.33062664,4.468525565
10.08889832,21.84373046,17.43908123,14.25654671,-5.038559143,-4.284768538,-17.50103423,-10.24439313,-59.47748571,-0.097702706,-62.54012971,-23.41014475,-12.90599365,-5.410821727,3.164853857,17.28307094,6.899542107,20.6981623,3.991008877
9.398495639,21.64059742,17.04639612,15.44090923,-9.079836198,-2.935197649,-15.72182179,-14.58379143,-54.47128518,9.99782638,-52.5470082,-17.05307309,-8.462448351,-2.398320439,5.367845479,17.86359384,7.341637827,20.85949059,3.12638641
9.409542319,21.43324988,16.68648053,17.88361663,-10.94055236,-1.871637678,-14.20233383,-18.6680856,-49.9815052,24.55564875,-45.65120717,-12.7214786,-5.247139253,0.231713571,7.884446113,18.4664767,7.696923898,20.71573961,1.827317745
9.868892842,20.07392484,15.35527369,18.53691734,-9.270908338,-1.489165716,-13.25498243,-19.95759355,-46.59170356,35.99428483,-43.26221616,-12.19665729,-4.120186609,1.508117649,9.420255986,17.64927956,7.240824515,19.26089281,0.337067478
10.19575682,17.21014674,12.5886979,15.40284912,-5.138404123,-1.788627282,-12.91562062,-17.2620914,-44.17457485,36.79936198,-44.17546784,-14.99223534,-4.958415701,1.30108071,8.689911165,14.9125295,5.903389613,16.37175979,-0.875197823
9.816073439,13.63762036,8.903477967,9.644790575,-1.456514589,-2.435697649,-12.97586255,-11.52635008,-42.04005579,24.99357524,-45.41107974,-18.58763792,-6.714983397,0.234680222,5.531084973,11.08646465,4.26190104,12.91136837,-1.379360343
8.588774951,10.74353651,5.56744173,5.146159555,-0.849493865,-3.006410316,-13.18171536,-5.2458008,-39.58075156,6.130488649,-44.29634751,-20.19464096,-8.079430999,-0.892163243,1.187029822,7.6743644,3.020572043,10.06694117,-1.090371002
7.003261939,9.473397918,3.833679599,5.651407975,-3.569299135,-3.230890507,-13.36416872,-0.895696943,-36.8071993,-9.945176028,-40.22749691,-18.73996826,-8.260936506,-1.697058836,-2.494819613,5.696815465,2.418050736,8.457384222,-0.380475125
5.946355988,9.648812016,4.166196353,11.65746628,-7.165360363,-3.09561912,-13.38906129,0.516868336,-34.2698319,-15.39732756,-34.81836385,-15.54826638,-7.34566917,-2.378850604,-4.307383301,4.973363769,2.063119368,7.729825388,0.126850653
6.141922161,10.18554566,5.992750636,19.57856644,-8.286116945,-2.786886973,-13.03460603,-0.209383652,-32.40818189,-9.219184056,-30.40273826,-13.20485999,-6.020379698,-3.383264997,-4.386332849,4.408864302,1.339494006,6.966956768,-0.023960193
7.634262053,10.03206818,8.136909282,24.02939086,-5.282407132,-2.550092238,-11.99660714,-1.359870857,-30.89333456,2.835548076,-28.10812411,-13.48388464,-4.931784249,-4.888512863,-3.856412121,3.029843065,0.037131755,5.566285865,-0.770061076
9.696759159,9.063412925,9.596759498,21.64705234,0.422087108,-2.553682011,-10.09133048,-1.626086696,-28.58918713,12.86934244,-26.9932835,-15.93259316,-4.192524627,-6.543688373,-3.780976657,0.910843216,-1.335890859,3.863652241,-1.510136296
11.26362194,8.201128718,10.11322452,13.61298577,5.312385046,-2.809690007,-7.501232633,-0.833405823,-24.27979878,16.28701783,-24.85945787,-18.16457941,-3.379672126,-7.660360212,-4.316694919,-0.773934708,-1.854429833,2.972637208,-1.461479567
11.60037072,8.655873201,10.16029904,4.951474728,6.393780072,-3.16595881,-4.811955528,0.356622132,-17.66388258,14.01994515,-20.03135969,-17.58639387,-1.958338959,-7.684809207,-4.750491771,-0.629736868,-0.87851762,3.939968011,-0.179299653
10.73844297,10.89440428,10.43039369,1.077249478,3.414386459,-3.368028492,-2.728692663,1.323818362,-9.827566874,10.33191965,-12.69164315,-13.22327608,0.257120511,-6.568076199,-4.315331522,1.838551628,1.396835987,6.870305674,2.098532041
9.36126573,14.15048283,11.24036575,4.09790087,-1.021403956,-3.174110711,-1.628196171,2.089865315,-2.735150921,8.594756959,-4.762807084,-6.321800177,2.975440733,-4.758471996,-3.014851072,5.744563417,3.991781762,10.70968628,4.513258671
8.236288843,16.86610155,12.29703192,11.51160003,-3.504473278,-2.47904187,-1.269154566,3.148759598,1.994633862,8.771762767,1.509492368,0.589347015,5.695657615,-2.858569391,-1.695978912,9.352682086,5.768343924,13.86915872,6.026458028
7.63356042,17.72546855,12.95530124,18.12695111,-2.398699223,-1.380247754,-0.898314827,4.795926043,4.180052043,8.483183482,5.139773164,5.349775954,8.10187049,-1.246770424,-1.280908402,11.21561969,6.157288862,15.22424659,5.975824813
7.1833294,16.50580247,12.7312136,19.6937305,1.065540996,-0.136221087,0.288307067,6.677800141,5.219013106,6.217614277,6.962284718,7.292700908,10.23821523,0.041498324,-1.832240788,11.06225176,5.439175346,14.749399,4.417341399
6.28191325,14.14156543,11.67251846,15.61969783,3.966016565,0.966501768,2.624782687,8.031283377,7.119368191,3.424116521,8.822387097,7.174654699,12.33010525,1.12257355,-2.322407691,9.804089501,4.397025595,13.34586783,2.067081095
4.716504863,12.01330482,10.33279004,8.993809101,4.105168319,1.752255739,5.731397787,8.385550746,11.06525192,3.410171539,12.10006668,6.221888936,14.42739533,1.978482276,-1.419328415,8.720186302,3.652518631,12.04716668,-0.10025285
2.991377837,11.03003613,9.402044413,4.174519314,1.708728331,2.205044217,8.692218474,8.025930126,16.53508956,8.03127991,16.70497155,5.189658459,16.19106538,2.354759976,1.274525657,8.486786279,3.22374148,11.24368706,-1.348985527
2.059008307,11.16045947,9.277975283,3.854986835,-0.894778445,2.400623267,10.52904834,7.7272377,21.61876223,15.30707902,21.23647369,4.121145666,17.02055664,1.941067384,4.558848199,8.782439018,2.631163061,10.51249858,-1.499877325
2.627901979,11.66717188,9.865654623,7.638839006,-1.251911881,2.392332541,10.68796436,7.969109403,24.32932707,20.38874686,24.0855063,2.785693897,16.44308356,0.675838967,6.215031445,8.707421089,1.420145208,9.137021493,-0.920400149
4.569383304,11.76471518,10.70193045,12.84354677,1.236204087,2.160070217,9.287676783,8.385363184,23.98660935,19.33546368,24.59550732,1.228594864,14.4867913,-1.095638844,4.543521848,7.620317409,-0.356234969,6.861569423,-0.235915951
6.895333074,11.16852157,11.2762184,16.61958547,4.895558875,1.671763196,7.041182948,8.038856643,21.69482843,12.55484426,23.45646089,-0.097121176,11.78020648,-2.756374078,-0.236487341,5.708421627,-2.088468056,4.263112336,0.047019725
8.355379339,10.17288473,11.31698404,17.73515302,7.152318849,0.996187636,4.927962789,6.356312193,19.58767263,4.858297094,22.1509283,-0.65746976,9.318428356,-3.747557989,-5.829997466,3.863748288,-3.017114091,2.440696449,-0.206970086
8.229467609,9.296818873,10.87546833,16.91104721,6.496140347,0.345987231,3.780481728,3.882476419,19.3940002,1.867111016,21.95604229,-0.229978661,8.04421375,-3.841404701,-9.203439405,2.99795022,-2.75346907,2.253950832,-0.751726026
6.73915018,8.83303416,10.19181356,15.79895203,3.459611109,-0.017421699,3.953606376,2.072421721,21.34220996,5.612023098,23.22929636,1.023829134,8.468678121,-3.168690119,-8.560967454,3.347948389,-1.513261214,3.675276356,-1.165415117
4.789971874,8.632879322,9.461254662,15.59528731,-0.0455173,0.041368842,5.204289374,2.152028851,24.14291654,12.92056275,25.38390506,2.812592162,10.4900656,-2.026234799,-4.577501185,4.295045517,0.073608051,5.722019358,-1.13545099
3.263274062,8.22618579,8.658794196,16.29770587,-2.325998192,0.42369197,6.83898385,3.959851095,25.99475454,17.9146687,27.42253402,4.964481203,13.45150115,-0.660252163,0.016769965,4.802876568,1.371762009,7.008212769,-0.658512557
2.40431544,7.13236514,7.528896165,16.92820738,-3.056496232,0.863855592,8.082996363,5.832794019,25.84691297,16.56592832,28.57283117,7.380991812,16.39701941,0.795480079,2.246137116,4.119798868,2.030077176,6.532696144,-0.052602882
1.753684102,5.139691878,5.746822897,16.32119668,-3.118954206,1.137261896,8.506835328,5.80291231,24.03648727,9.626901549,28.63505763,9.765609367,18.44782287,2.222703022,0.840302845,2.234453668,1.979167507,4.196878501,0.21351374
0.630137259,2.415293389,3.162948517,13.83606859,-3.456762792,1.247852744,8.276965327,3.250489329,21.94190284,1.707361854,27.95689137,11.49666953,19.1837218,3.420353236,-3.024852323,-0.196201133,1.248084377,0.770858678,-0.228617149
-1.25086315,-0.56053412,-0.00874117,9.628647706,-4.073756225,1.435769225,8.05979093,-0.334736354,21.02025113,-2.504397214,27.19796081,11.92418933,18.86702619,4.15557211,-6.66790742,-2.321979328,-0.148216515,-2.597398177,-1.454386998
-3.516382872,-3.17008696,-3.178158862,4.530086331,-4.076022637,1.98668441,8.60326691,-2.21794321,21.97211707,-1.631039696,27.07193567,10.94794098,18.34920902,4.347075333,-7.78678958,-3.592005283,-2.118900445,-4.978741136,-3.211684578
-5.413051802,-4.873088062,-5.57613799,-0.233538868,-2.653693185,2.989333516,10.24136152,-0.362358363,24.56232157,2.056340293,28.13003162,9.37560778,18.62656948,4.198478082,-5.908322207,-3.934359232,-4.322139672,-6.020194121,-5.054136455
-6.36543494,-5.395912877,-6.575715221,-3.346475367,-0.043771069,4.236901992,12.64939595,5.00985191,28.0551333,5.2456848,30.56479343,8.635507367,20.2363738,4.105899087,-2.411747658,-3.578694369,-6.151680527,-5.928336773,-6.559379681
-6.354236402,-4.821169657,-5.968402449,-3.75323815,2.452566251,5.355258473,15.03423423,11.47183688,31.78443726,6.554050112,34.06193337,9.915396729,22.8583659,4.357384924,0.759013211,-2.747088206,-7.006085397,-5.183017739,-7.507068917
-5.830683788,-3.514589758,-4.038533786,-1.059751883,3.462300715,6.057614444,16.64898767,16.0652086,35.39831286,7.217072627,37.82365289,13.3099985,25.43293864,4.855314027,2.610070381,-1.489976563,-6.685469553,-4.203699672,-7.921440052
-5.278236287,-1.901590508,-1.394242973,4.172666701,2.692760153,6.323468601,17.28275079,17.33311675,38.70711308,9.13143644,40.86693453,17.63294351,26.79503096,5.122455405,3.655760317,0.228451631,-5.588885367,-3.154660755,-7.968143941
-4.81076786,-0.219774821,1.335855407,10.49485727,1.230600408,6.364035348,17.37622724,16.1717185,41.43709709,12.36188125,42.51495903,21.08784644,26.44050735,4.64281879,5.158656087,2.318966327,-4.494780953,-1.953379965,-7.784245319
-4.137386293,1.572647097,3.749327963,16.10273117,0.695434412,6.411781303,17.66924406,14.88782501,43.21859797,14.65357935,42.78998218,22.35356408,24.88579866,3.299521956,7.764506292,4.447236579,-4.03079094,-0.430512717,-7.35956984
-2.897121523,3.639248568,5.717745014,19.61087424,1.930450487,6.511751559,18.6194662,15.25044808,43.83339419,13.51918155,42.39684112,21.33122994,23.31968496,1.553024874,10.71465953,6.122567169,-4.214101979,1.468391361,-6.551990142
-1.058408181,5.95639635,7.239663762,20.60968294,4.306027115,6.483728232,20.00188053,17.08271817,43.43435763,8.936565928,42.23735379,19.06439348,22.74903095,0.178096955,12.31494179,6.924420436,-4.42924479,3.547490253,-5.229827393
0.956887663,8.097351714,8.238195406,19.64407142,6.202161767,6.080053018,20.9805503,18.47262906,42.44971104,3.959352475,42.75533956,16.95516948,23.24316439,-0.274778224,11.28068092,6.683473392,-3.895892598,5.357599444,-3.447190943
2.515512989,9.316148758,8.46782306,17.64078014,6.266894134,5.207496013,20.62146015,17.38455351,41.20307914,2.35191928,43.587048,15.87368279,23.85494332,0.111925385,7.831935432,5.484345772,-2.302276299,6.329096141,-1.529294106
3.16458718,8.919702636,7.598632177,15.20388272,4.434243555,4.038766622,18.51591932,13.36854558,39.60629168,5.14032813,43.80559607,15.7537146,23.32094972,0.673441866,3.599783264,3.514409295,-0.136691698,5.981895274,0.004766531
2.853562936,6.683652762,5.410801508,12.28459986,1.91531094,2.935101642,15.11190458,8.029645205,37.27493904,9.199631945,42.61120268,15.84532078,21.05543906,0.654527048,0.382475137,0.907701432,1.542342261,4.117601553,0.654576577
1.839005079,3.015672258,1.96355164,8.440957156,0.224321037,2.247502954,11.54428736,3.919976902,34.04250649,9.454345429,39.96544731,15.32748301,17.70329041,-0.223311224,-1.239347551,-2.276759751,1.752515287,0.911325962,0.172812934
0.404448404,-1.246869599,-2.35868614,3.46043567,0.050547169,2.14171704,9.072650211,2.73471121,30.4354835,3.167991127,36.69089678,13.81981633,14.81756686,-1.551425363,-2.267226089,-5.929995189,0.208918227,-3.123703746,-1.309854165
-1.333635794,-5.245051041,-6.925054801,-2.139897223,0.845708443,2.551591119,8.466739234,4.185692923,27.62283051,-7.199395455,33.96010176,11.52527547,13.86815757,-2.539835516,-4.286394746,-9.740669761,-2.496881395,-7.264628351,-3.338786377
-3.373981274,-8.415275115,-10.9995861,-7.11678398,1.371741115,3.258394986,9.688871254,6.360044419,26.76637101,-15.16344326,32.57107217,9.052496244,15.28729997,-2.601630785,-7.898140464,-13.16190227,-5.261399151,-10.7430706,-5.335818653
-5.617129912,-10.52696586,-13.88966691,-10.02378735,0.699413495,4.01509751,12.02518585,7.235648864,28.24221173,-14.80935428,32.56857272,7.133709666,18.23212197,-1.771937823,-11.89410271,-15.5515528,-7.113038306,-12.90930457,-6.835672218
-7.724463395,-11.50602829,-15.08910804,-9.925730448,-1.13141303,4.636933532,14.54996947,6.201722718,31.3852729,-5.329275116,33.48149752,6.396121078,21.21156418,-0.659207,-13.92725115,-16.41068137,-7.711206722,-13.38987635,-7.639532733
-9.208848428,-11.2796079,-14.41580545,-6.883116631,-3.221470345,5.036326328,16.62980738,4.498376232,35.02016032,8.09525242,34.93372608,7.202721395,23.09369588,0.007260662,-12.22706144,-15.58193762,-7.411540431,-12.22237469,-7.826611169
-9.696009391,-9.818346569,-12.10555576,-1.962871511,-4.491020435,5.224931414,18.17830326,4.320024754,38.37539816,17.86221264,37.07038041,9.528983265,23.75913379,-0.124210534,-7.02473915,-13.3110846,-6.913278364,-9.904007088,-7.648012497
-9.137717977,-7.326372334,-8.785039193,3.185205324,-4.352111075,5.301463154,19.54025685,7.263665663,41.60847989,19.28208116,40.39441404,12.9111976,23.97297763,-0.839527787,-0.536286998,-10.16924091,-6.759452979,-7.266969874,-7.381150489
-7.804003805,-4.353191651,-5.277584817,6.951493601,-2.927483256,5.414674803,21.11189339,13.18712961,45.45488752,13.62881216,45.11814426,16.56124558,24.65315383,-1.567731624,4.521361136,-6.896406085,-7.011097767,-5.158276689,-7.220862387
-6.081264446,-1.646848181,-2.301455809,8.324158041,-0.805154535,5.686551286,22.95888656,20.18325571,50.25761642,6.69705541,50.58329694,19.66963601,26.13971712,-1.774404666,6.733262102,-4.22080738,-7.266484033,-4.044865517,-7.239613602
-4.266071372,0.199312137,-0.220834399,7.19813376,1.351213736,6.118756033,24.68626105,25.60939582,55.21368746,4.164008189,55.30493991,21.75042766,28.00294429,-1.23687149,6.701575568,-2.671259368,-6.971132489,-3.779954498,-7.40214639
-2.521181826,1.045421651,0.997672189,4.355366685,3.03334714,6.547733783,25.64635968,27.48417801,58.56581994,7.424366053,57.71963486,22.79033579,29.45651542,-0.058590885,6.148316866,-2.396657698,-5.806107526,-3.727014786,-7.600830423
-0.981382841,1.203737447,1.606245735,1.124577656,3.918929003,6.705651886,25.34445821,25.43435528,58.71218135,12.98798029,57.13560798,23.07898141,29.96694459,1.482052332,6.197801418,-3.055595793,-3.922742811,-3.219251479,-7.689959049
0.158386144,1.131260648,1.824367645,-1.176163429,3.863457186,6.373950126,23.76390897,20.72975596,55.41310397,15.60834441,54.17209825,22.85207345,29.54871174,3.055286216,6.304720412,-3.881687115,-1.89559174,-2.07077761,-7.519176278
0.715831783,1.068955372,1.717228488,-1.802919025,2.973075873,5.535984294,21.38382061,15.49431414,50.12022839,12.46489983,50.33156354,22.05129487,28.5570647,4.289847847,4.759454898,-3.985694894,-0.42404875,-0.764055416,-6.974588227
0.713639767,0.925406303,1.28731371,-0.885433755,1.680296569,4.418027749,18.87689835,11.59773361,45.10730246,5.156084627,47.00794057,20.41868541,27.23856625,4.761606864,0.381154818,-2.810269073,0.050734796,-0.132056192,-6.024900299
0.486709225,0.486724393,0.663246923,0.726105804,0.64025802,3.378786814,16.70511498,9.831174432,42.0294848,-1.774535232,44.67193612,17.8514344,25.48862105,4.106625967,-6.020523966,-0.499623063,-0.404430863,-0.72576892,-4.752857515
0.531891629,-0.257010284,0.167137451,2.018745797,0.39543469,2.715468222,14.90424539,9.755038653,40.99855708,-4.31144023,42.82856451,14.69719669,23.04802446,2.267579109,-11.71368826,2.076406102,-1.251960793,-2.329438296,-3.348155715
1.151058614,-0.986218788,0.140850586,2.459739163,1.006330368,2.513245817,13.20153162,10.21705098,40.84313469,-1.647096408,40.71899396,11.69950445,19.9506615,-0.311717415,-13.74003232,3.732284678,-1.800229137,-4.019010923,-2.053750347
2.158834308,-1.266568712,0.642010984,2.302408493,1.956062507,2.628456633,11.35078568,10.1752018,40.26530692,3.765101768,38.1403716,9.59732168,16.78391012,-2.7728112,-11.00826784,3.619182032,-1.616226418,-4.766172435,-1.08320395
2.929738159,-0.93049044,1.281110798,2.318819981,2.464929752,2.797484322,9.401055313,9.311048822,38.9036445,8.399974664,35.67792019,8.688711824,14.4638391,-4.251992595,-5.174220827,1.736238396,-0.772268245,-4.157148899,-0.544879012
2.810870722,-0.280854282,1.401283375,3.114497592,2.02192741,2.784753916,7.679022759,8.076023384,37.44874734,10.11705436,34.15766164,8.71184969,13.6441959,-4.374290495,0.414456573,-1.028698199,0.24278942,-2.672785143,-0.407879191
1.618521971,0.097185429,0.532972332,4.510460093,0.742221684,2.481359058,6.514154934,7.198280757,36.8032195,9.089500339,33.81400314,9.132586753,14.21851691,-3.469700237,2.962580646,-3.370415687,0.893245534,-1.291628399,-0.525734015
-0.165422144,-0.201090813,-1.198657961,5.483336265,-0.720063062,1.925732087,5.961467265,7.049404961,37.10228734,6.929451495,33.94310495,9.587020457,15.34354884,-2.318726441,2.017402237,-4.261564099,0.985529627,-0.706892578,-0.707276252
-1.673015057,-1.031381021,-3.049900172,4.787297557,-1.627508707,1.274557472,5.780861514,7.361963983,37.5060832,5.151885483,33.42419733,10.10999739,16.01903538,-1.58696245,-0.47169026,-3.446095457,0.78676795,-0.773007005,-0.802249637
-2.217051061,-1.74537587,-4.089243746,1.877431513,-1.627379914,0.757237814,5.700057458,7.509336502,36.96427551,4.313980946,31.73685397,10.98434088,15.81258184,-1.362641023,-1.775107102,-1.457614946,0.777426211,-0.638979454,-0.761190632
-1.729662281,-1.648407999,-3.804207472,-2.518504977,-0.896151078,0.613817417,5.71651273,7.100072925,35.26260254,4.225656945,29.61206661,12.37991625,15.17785685,-1.147926158,-0.400803918,0.785072412,1.227322254,0.513925533,-0.639733696
-0.755162882,-0.535087209,-2.451791054,-6.644489481,0.087546985,0.999738262,6.129807505,6.362229838,33.37513291,4.591322458,28.67191448,14.11443413,15.10104384,-0.309688252,2.985889779,2.494700008,1.937638918,2.711326554,-0.544951825
-0.023914546,1.106775381,-0.894926257,-8.690942853,0.896968517,1.874937472,7.219286436,5.948370194,32.73036312,5.25856415,30.20826993,15.72437247,16.31118483,1.360680847,6.305846932,3.32001006,2.375701178,5.029575261,-0.55463121
0.053952294,2.388406389,-0.042413874,-7.882457829,1.344839386,2.949425345,8.816828467,6.285780279,33.95915256,5.927643026,33.99959972,16.73658997,18.62510186,3.410485295,7.749935906,3.323528973,2.116816663,6.208370853,-0.660265429
-0.397936167,2.602427715,-0.294413419,-4.943251643,1.420100876,3.763787992,10.17532397,7.029847719,36.19358914,5.897278482,38.1372205,16.86770872,20.91403999,4.987181542,7.04074158,2.76447282,1.242307925,5.579767995,-0.773756005
-0.918927434,1.681374388,-1.371778692,-1.611201808,1.136658835,3.905791895,10.33782726,7.160410871,37.57366523,4.407284119,40.11764718,15.99700325,21.74008581,5.38818822,5.36458989,1.908102784,0.350580626,3.588887158,-0.796393258
-1.113395987,0.222588766,-2.604935625,0.471728619,0.505320866,3.250017803,8.800951291,5.754283337,36.61963836,1.416253924,38.48300997,14.02585418,20.23929066,4.484098794,4.18066797,0.975156507,0.133714541,1.485407395,-0.701311897
-0.924646002,-0.910506963,-3.42282109,0.729062825,-0.340458271,2.055465802,5.974913845,2.862203581,33.38215444,-1.991709789,33.82263748,10.87016921,16.66231416,2.727117689,3.971311011,0.171106766,0.830286671,0.413784332,-0.56377599
-0.594926353,-1.114703581,-3.671752989,-0.174175435,-1.045305265,0.83034006,3.037913188,-0.264279555,29.43051666,-4.200607707,28.38021768,6.680865373,12.22818675,0.792877274,3.947577675,-0.332790791,1.992021483,0.607392825,-0.507374774
-0.399780333,-0.352106345,-3.570891006,-1.019183417,-1.152440543,0.034625667,1.223749845,-1.902224693,26.67395713,-4.355495712,24.53550301,2.092178932,8.413965784,-0.832781409,2.874768266,-0.502612332,2.776965957,1.310820279,-0.600070121
-0.407994898,0.926041892,-3.408584872,-1.026624592,-0.422390118,-0.182664371,1.032180717,-1.08508225,25.95910747,-3.236099539,23.26504471,-1.833661538,6.160991953,-2.021299206,0.261707334,-0.522695595,2.569467787,1.47518989,-0.78224178
-0.453312344,2.129425831,-3.259677316,-0.393490539,0.909108328,-0.03032932,1.943060234,1.5944011,26.56124733,-2.751828418,23.68729946,-4.088251249,5.493359582,-2.867496139,-3.100541003,-0.718649792,1.454841074,0.655713011,-0.895367853
-0.299443061,2.888475633,-2.940457712,0.013087997,2.205276117,0.120765327,2.854219083,4.281315837,26.94615908,-4.241190897,23.96587042,-4.348767864,5.733332772,-3.449005077,-5.695844488,-1.323297154,0.171466037,-0.618898642,-0.806083137
0.169903475,3.194186115,-2.202015744,-0.475675789,2.846675655,0.026532961,2.920183666,5.119057864,26.14372036,-6.933250307,22.82942772,-3.256504644,6.096861874,-3.719913076,-6.479444457,-2.268668517,-0.438628364,-1.312701292,-0.539372937
0.881785639,3.256152583,-0.986442882,-1.624044773,2.691833466,-0.257973514,2.169142561,3.582918035,24.59964449,-8.030498504,20.54872193,-2.034432565,6.234500432,-3.608234488,-5.746089203,-3.224781799,-0.068823256,-0.825246616,-0.313545459
1.630854286,3.1960133,0.440987937,-2.344296268,2.200108528,-0.432505843,1.454629886,0.904178515,23.83356462,-4.656203449,18.68789844,-1.639050675,6.374775234,-3.176027487,-4.962133773,-3.921832412,0.808790058,0.332136633,-0.433159905
2.162920267,2.787339904,1.54883496,-1.499421502,2.090187734,-0.167698386,1.810442415,-0.738978592,25.22326018,3.69921161,18.91181114,-2.044825314,7.035714519,-2.647347281,-5.654504548,-4.518124862,1.279231888,0.675792086,-1.100830242
2.212546615,1.430648957,1.725965938,1.161095343,2.79010223,0.688250866,3.715156089,0.318137811,28.92517453,14.22393454,21.81355811,-2.207421248,8.566774473,-2.251166863,-8.167473514,-5.658813708,0.644897099,-1.354191668,-2.27354215
1.527191691,-1.567845197,0.502251474,4.677222786,4.115493061,2.04750253,6.8002498,4.152558332,33.77747213,22.30962428,26.61660177,-0.760211139,10.86779115,-2.019098342,-11.20768649,-8.057898986,-1.076770091,-6.349949297,-3.660617238
-0.041664314,-6.517150468,-2.25748719,7.447621974,5.427006164,3.667230535,10.15658504,9.277108977,38.18820816,24.60989991,31.84655973,3.044966226,13.46500093,-1.735424166,-12.54438667,-11.8225462,-3.162556979,-13.44090426,-4.859904828
-2.379743511,-12.91811852,-6.225018877,8.279250081,6.11978512,5.275291725,12.93370579,13.64987622,41.21692803,21.37017447,36.31024885,8.803034791,15.8440513,-1.105706,-10.43127748,-16.0216188,-4.656766818,-20.64320953,-5.536303711
-5.012762677,-19.39220026,-10.60886656,7.12863618,6.031371556,6.634711079,14.75337577,15.88763179,42.96709709,16.19503936,39.57267275,15.14445343,17.75541908,-0.01334389,-4.825253684,-18.91685629,-4.944436379,-25.78963605,-5.534233399
-7.226219697,-24.11806006,-14.35834665,4.990272527,5.447762317,7.537731667,15.68140644,15.86562229,44.05500658,13.3406138,41.65844948,20.43461129,19.25033415,1.347581517,2.395286084,-18.83516202,-4.039148748,-27.46435702,-4.88525799
-8.410608121,-25.63979969,-16.56579085,3.05755455,4.751310606,7.801641582,15.89727073,14.43655396,44.72315505,14.54675463,42.42348427,23.47579598,20.43675163,2.568824435,8.376709533,-15.1703843,-2.457178043,-25.46928792,-3.755431723
-8.42590382,-23.62774361,-16.89960731,1.840282041,4.061187504,7.328030343,15.42377597,12.64839496,44.4359138,17.815341,41.31510287,23.83627419,21.18470584,3.267231379,10.8455709,-8.843772166,-0.851357532,-20.70838592,-2.398704526
-7.698862864,-19.11248795,-15.79204848,0.923729283,3.196552557,6.199830064,14.16041811,11.08998303,42.32799553,19.05390784,37.83926062,21.7993448,21.06757266,3.27586815,9.350659493,-1.877287714,0.309837099,-14.69426997,-1.131133762
-6.93091619,-13.97916629,-14.19365589,-0.49276,1.973386481,4.71961786,12.14265095,9.739231811,38.10244974,15.29615799,32.34490325,18.16409429,19.64379583,2.664553269,5.456682129,3.669765054,0.854663875,-8.973063875,-0.279170965
-6.598478409,-9.974140108,-12.98830712,-2.777428671,0.527598596,3.3168979,9.729893991,8.237580212,32.57002475,7.021319139,26.35193845,14.0566792,16.89255252,1.629732531,1.771399342,6.71484672,0.851383065,-4.668765585,-0.060605714
-6.619610492,-7.827752504,-12.443451,-5.470346522,-0.66584139,2.357588388,7.500540492,6.262946596,27.32330783,-2.152717987,21.95091207,10.68612954,13.44595714,0.390133461,0.373682728,7.48053281,0.515635971,-2.229009182,-0.438423242
-6.457543956,-7.053982646,-12.10167619,-7.623914141,-1.116464716,1.979990244,5.91824724,3.757236885,23.77211119,-8.060431512,20.56434416,8.916890588,10.36535438,-0.829177237,1.57162259,6.999077502,0.148917311,-1.407118015,-1.068033151
-5.59180438,-6.537534629,-11.22414151,-8.556090298,-0.691956795,2.070451728,5.057247045,0.991570385,22.29803455,-8.801206844,21.95252291,8.755435278,8.539710936,-1.775025787,3.74238236,6.23037532,0.063593517,-1.497308133,-1.43918339
-3.983503261,-5.465093067,-9.470377234,-8.354919354,0.307398229,2.383468276,4.627592212,-1.450020686,22.17340705,-5.679050761,24.25859226,9.135980874,8.101402471,-2.218349886,4.374046442,5.458242927,0.439368699,-1.759219379,-1.177208651
-2.153796925,-3.914284661,-7.283251913,-7.717485066,1.444698702,2.700377698,4.269782148,-2.781704188,22.24866018,-1.78180719,25.15293492,8.373899312,8.302135981,-2.104649081,1.700009237,4.357313851,1.166685303,-1.830586567,-0.313162345
-0.804461348,-2.68256768,-5.646737694,-7.307445393,2.527567874,2.906386136,3.845406696,-2.327810278,21.79941196,0.4115747,23.31634635,5.212587129,7.998412907,-1.675643129,-4.071603625,2.578751208,1.833972419,-1.865111738,0.696726851
-0.287056987,-2.528056513,-5.370966499,-7.234863564,3.694819569,2.956658047,3.462669183,-0.024172057,20.85193473,0.397132255,19.23549386,-0.168741809,6.45337586,-1.389833605,-10.71545922,0.31289597,1.962167071,-2.271721711,1.265157813
-0.355890471,-3.451113159,-6.452241727,-7.124312605,5.102591673,2.80973353,3.233687909,3.186327318,19.80872811,-0.923770911,14.78123189,-5.976250421,3.89855103,-1.614182158,-15.19766474,-1.658752248,1.383478556,-3.225792553,1.100259284
-0.406803007,-4.605776971,-8.023258534,-6.667526718,6.505498215,2.427295136,3.025631999,5.505504238,18.81962655,-2.875847228,11.91668636,-9.748602335,1.433312958,-2.28873907,-15.41415024,-2.473832065,0.477570116,-4.344254437,0.447687741
-0.000484098,-4.91928968,-8.95486821,-6.080035781,7.179816929,1.854373241,2.488355744,5.16013529,17.54429871,-5.925881479,11.47217207,-9.889109819,0.299326879,-2.863429373,-11.39127554,-1.850412772,0.015157425,-4.839330934,-0.062059545
0.76661346,-3.922675007,-8.651943265,-5.954601078,6.36743652,1.288824072,1.384809514,1.611582107,15.56258942,-10.87511025,12.80398282,-6.724018386,1.024035267,-2.640561361,-5.215703617,-0.361359529,0.639578066,-4.095046324,0.121420899
1.350845462,-2.120918531,-7.427299004,-6.591077159,3.941977095,1.032786392,-0.058206474,-3.748343047,13.05722703,-17.07930379,14.45687061,-2.302328309,3.03810336,-1.326642711,0.230895016,0.915542733,2.334742625,-2.227287727,1.031590458
